##TITLE= fixdec1.jdx
##JCAMP-DX= 4.24 $$ converted PE file
##DATA TYPE= INFRARED SPECTRUM
##ORIGIN= Dept of Chemistry, UWI, JAMAICA
##OWNER= public domain
##DATE= 97/01/28
##TIME= 10:00:00
##$URL= http://wwwchem.uwimona.edu.jm:1104/spectra/testdata/index.html
##NPOINTS=  3951
##XUNITS= 1/CM          
##YUNITS= TRANSMITTANCE 
##RESOLUTION= 2 cm-1
##FIRSTX=  4400.007
##LASTX=  450
##XFACTOR= 1.0
##YFACTOR=  9.5367E-7
##FIRSTY=  64.915
##MAXY=  81.962                                 
##MINY= -.19226                                 
##XYDATA= (X++(Y..Y))
 4400   68068800 68092800 68145600 68100800 68140800 68232000
 4394   68304000 68316800 68195200 68152000 68182400 68176000
 4388   68240000 68252800 68156800 68156800 68236800 68292800
 4382   68302400 68265600 68233600 68214400 68224000 68284800
 4376   68353600 68334400 68219200 68230400 68315200 68276800
 4370   68259200 68264000 68257600 68316800 68292800 68339200
 4364   68436800 68321600 68272000 68417600 68480000 68409600
 4358   68350400 68355200 68432000 68452800 68404800 68428800
 4352   68491200 68464000 68390400 68388800 68419200 68436800
 4346   68395200 68308800 68358400 68500800 68483200 68414400
 4340   68467200 68480000 68528000 68585600 68548800 68552000
 4334   68572800 68532800 68555200 68601600 68521600 68523200
 4328   68590400 68569600 68534400 68582400 68620800 68630400
 4322   68592000 68544000 68563200 68563200 68596800 68684800
 4316   68704000 68667200 68675200 68740800 68768000 68702400
 4310   68603200 68577600 68659200 68675200 68668800 68627200
 4304   68582400 68632000 68700800 68750400 68750400 68705600
 4298   68744000 68793600 68705600 68702400 68764800 68790400
 4292   68851200 68806400 68704000 68648000 68747200 68849600
 4286   68795200 68785600 68828800 68889600 68937600 68915200
 4280   68878400 68924800 68969600 68953600 68875200 68811200
 4274   68846400 68897600 68947200 68998400 68945600 68844800
 4268   68873600 68993600 69003200 68936000 68985600 69038400
 4262   68966400 68900800 68929600 69012800 68987200 68878400
 4256   68934400 69008000 68976000 68961600 68952000 68936000
 4250   68990400 69113600 69177600 69136000 69048000 69064000
 4244   69105600 69124800 69108800 69051200 69073600 69070400
 4238   69022400 69123200 69132800 69081600 69121600 69168000
 4232   69140800 69134400 69203200 69236800 69184000 69120000
 4226   69134400 69166400 69148800 69163200 69168000 69212800
 4220   69267200 69238400 69212800 69246400 69291200 69323200
 4214   69323200 69344000 69350400 69308800 69235200 69260800
 4208   69321600 69296000 69302400 69377600 69385600 69392000
 4202   69420800 69404800 69339200 69300800 69283200 69278400
 4196   69350400 69395200 69377600 69387200 69396800 69385600
 4190   69459200 69475200 69403200 69406400 69424000 69457600
 4184   69515200 69539200 69547200 69547200 69574400 69510400
 4178   69476800 69516800 69547200 69558400 69516800 69571200
 4172   69641600 69577600 69494400 69515200 69596800 69616000
 4166   69592000 69603200 69625600 69641600 69648000 69612800
 4160   69553600 69572800 69673600 69675200 69603200 69622400
 4154   69720000 69692800 69659200 69728000 69732800 69700800
 4148   69667200 69662400 69723200 69756800 69739200 69776000
 4142   69732800 69696000 69729600 69752000 69793600 69844800
 4136   69832000 69801600 69830400 69843200 69846400 69856000
 4130   69793600 69806400 69841600 69836800 69836800 69814400
 4124   69848000 69923200 69881600 69784000 69852800 69990400
 4118   69953600 69920000 69897600 69862400 69846400 69883200
 4112   70008000 70091200 70048000 69990400 70004800 70032000
 4106   70012800 69995200 70011200 70024000 70035200 69990400
 4100   70030400 70116800 70116800 70080000 70049600 70025600
 4094   70065600 70110400 70105600 70120000 70155200 70166400
 4088   70179200 70168000 70196800 70174400 70121600 70161600
 4082   70158400 70147200 70164800 70164800 70180800 70208000
 4076   70158400 70118400 70236800 70268800 70195200 70187200
 4070   70182400 70241600 70297600 70316800 70275200 70268800
 4064   70337600 70305600 70273600 70344000 70382400 70336000
 4058   70291200 70300800 70348800 70400000 70404800 70400000
 4052   70390400 70347200 70320000 70336000 70380800 70417600
 4046   70465600 70457600 70408000 70401600 70430400 70494400
 4040   70462400 70411200 70459200 70504000 70512000 70547200
 4034   70569600 70582400 70550400 70521600 70540800 70529600
 4028   70528000 70585600 70576000 70508800 70510400 70576000
 4022   70628800 70590400 70558400 70630400 70646400 70569600
 4016   70577600 70627200 70617600 70600000 70648000 70673600
 4010   70646400 70627200 70601600 70616000 70678400 70708800
 4004   70769600 70817600 70747200 70720000 70760000 70787200
 3998   70836800 70798400 70744000 70784000 70769600 70748800
 3992   70748800 70750400 70790400 70809600 70796800 70784000
 3986   70793600 70878400 70936000 70926400 70851200 70857600
 3980   70854400 70828800 70830400 70777600 70811200 70891200
 3974   70854400 70804800 70816000 70856000 70921600 70976000
 3968   70968000 70883200 70840000 70929600 71025600 70974400
 3962   70876800 70862400 70953600 70990400 70972800 70960000
 3956   70990400 71030400 71054400 71012800 70993600 71052800
 3950   71019200 70968000 70976000 71033600 71094400 71084800
 3944   71052800 70988800 70945600 71049600 71137600 71113600
 3938   71091200 71118400 71147200 71123200 71072000 71070400
 3932   70979200 70980800 71097600 71086400 71076800 71185600
 3926   71185600 71032000 71009600 71126400 71160000 71182400
 3920   71054400 71004800 71163200 71040000 70964800 71169600
 3914   71300800 71299200 71254400 71280000 71323200 71280000
 3908   71272000 71283200 71209600 71081600 70889600 70916800
 3902   70979200 70865600 71054400 70854400 70860800 71272000
 3896   71459200 71385600 71260800 71326400 71315200 70961600
 3890   71024000 71345600 71432000 71427200 71163200 70880000
 3884   71160000 71321600 71350400 71214400 70859200 71030400
 3878   71409600 71526400 71521600 71390400 71006400 71049600
 3872   71416000 71393600 70905600 70619200 71094400 71488000
 3866   71550400 71176000 70960000 71262400 71347200 71280000
 3860   71404800 71520000 71542400 71361600 71425600 71691200
 3854   70851200 70313600 70636800 70872000 71350400 71520000
 3848   71614400 71696000 71657600 71651200 71588800 71395200
 3842   71484800 71392000 71209600 71443200 71251200 70900800
 3836   71331200 71428800 71350400 71627200 71584000 71320000
 3830   71563200 71726400 71724800 71616000 71500800 71617600
 3824   71721600 71712000 71494400 70870400 70966400 71454400
 3818   71726400 71782400 71299200 71081600 71598400 71881600
 3812   71926400 71904000 71896000 71923200 71835200 71387200
 3806   71268800 71684800 71814400 71708800 71478400 70990400
 3800   71291200 71784000 71876800 71792000 71609600 71790400
 3794   72019200 72009600 72000000 72027200 72041600 72040000
 3788   72012800 71996800 72000000 71944000 71908800 71971200
 3782   71964800 71968000 71896000 71652800 71795200 72024000
 3776   72100800 72155200 72238400 72177600 72121600 72118400
 3770   71852800 71625600 71974400 72118400 71891200 71718400
 3764   71968000 72115200 72137600 72188800 71977600 71681600
 3758   71816000 71915200 71897600 71966400 71993600 71945600
 3752   71382400 71350400 71654400 71174400 71385600 71852800
 3746   72025600 71788800 70683200 71264000 71921600 71963200
 3740   71878400 71939200 71852800 71724800 71438400 71201600
 3734   71334400 71760000 71720000 71601600 71902400 72056000
 3728   72067200 71976000 71803200 71827200 71990400 72004800
 3722   71830400 71961600 72163200 72096000 72062400 72190400
 3716   72251200 72225600 72240000 72198400 71611200 71542400
 3710   71888000 71737600 71910400 72246400 72289600 72276800
 3704   72312000 72323200 72144000 71974400 72190400 72332800
 3698   72291200 72288000 72305600 72323200 72340800 72363200
 3692   72291200 71862400 71814400 72060800 71732800 71921600
 3686   72342400 72468800 72484800 72475200 72499200 72504000
 3680   72353600 72204800 72318400 72392000 71924800 71206400
 3674   71635200 72273600 72520000 72227200 71756800 71892800
 3668   72137600 72420800 72558400 72641600 72672000 72635200
 3662   72603200 72574400 72560000 72611200 72689600 72588800
 3656   72148800 72164800 72524800 72652800 72540800 72116800
 3650   71774400 71752000 71880000 71897600 72116800 72510400
 3644   72675200 72702400 72649600 72660800 72712000 72668800
 3638   72656000 72673600 72729600 72753600 72590400 72459200
 3632   72630400 72691200 72476800 71848000 71678400 72196800
 3626   72523200 72646400 72728000 72737600 72705600 72622400
 3620   72436800 72193600 72267200 72451200 72688000 72726400
 3614   72670400 72587200 72419200 72660800 72824000 72480000
 3608   72449600 72569600 72649600 72833600 72832000 72808000
 3602   72806400 72756800 72713600 72729600 72732800 72764800
 3596   72662400 72528000 72635200 72732800 72763200 72817600
 3590   72899200 72787200 72536000 72492800 72481600 72712000
 3584   72843200 72820800 72873600 72904000 72820800 72798400
 3578   72859200 72894400 72910400 72902400 72889600 72897600
 3572   72864000 72873600 72905600 72825600 72529600 72384000
 3566   72443200 72571200 72684800 72700800 72784000 72822400
 3560   72753600 72766400 72878400 72880000 72817600 72817600
 3554   72817600 72744000 72683200 72715200 72777600 72771200
 3548   72721600 72633600 72619200 72654400 72668800 72747200
 3542   72814400 72860800 72905600 72881600 72856000 72857600
 3536   72836800 72875200 72963200 72990400 72966400 72956800
 3530   72976000 73008000 72988800 73004800 73044800 73057600
 3524   73089600 73100800 73092800 73168000 73220800 73214400
 3518   73267200 73353600 73339200 73307200 73348800 73408000
 3512   73398400 73363200 73336000 73345600 73424000 73430400
 3506   73420800 73473600 73502400 73459200 73481600 73556800
 3500   73617600 73651200 73683200 73697600 73643200 73652800
 3494   73758400 73780800 73747200 73758400 73800000 73862400
 3488   73843200 73800000 73812800 73841600 73888000 73856000
 3482   73782400 73838400 73926400 73976000 74019200 74020800
 3476   73964800 73985600 74024000 74073600 74067200 74044800
 3470   74060800 74078400 74131200 74158400 74113600 74104000
 3464   74144000 74153600 74118400 74144000 74206400 74233600
 3458   74212800 74225600 74283200 74329600 74347200 74304000
 3452   74305600 74294400 74294400 74313600 74331200 74281600
 3446   74260800 74321600 74339200 74286400 74305600 74390400
 3440   74432000 74422400 74396800 74404800 74409600 74427200
 3434   74499200 74483200 74444800 74491200 74524800 74529600
 3428   74553600 74571200 74598400 74640000 74648000 74609600
 3422   74608000 74643200 74681600 74675200 74630400 74680000
 3416   74697600 74665600 74688000 74761600 74816000 74814400
 3410   74792000 74811200 74846400 74881600 74891200 74849600
 3404   74841600 74926400 74968000 74904000 74894400 74979200
 3398   74956800 74878400 74921600 74947200 74932800 74979200
 3392   74993600 74987200 75028800 75036800 75022400 75052800
 3386   75060800 75068800 75102400 75139200 75134400 75107200
 3380   75140800 75147200 75129600 75217600 75225600 75172800
 3374   75163200 75148800 75185600 75236800 75272000 75260800
 3368   75243200 75249600 75278400 75272000 75227200 75224000
 3362   75259200 75289600 75323200 75340800 75368000 75379200
 3356   75352000 75326400 75337600 75380800 75382400 75414400
 3350   75451200 75424000 75393600 75374400 75411200 75446400
 3344   75441600 75473600 75478400 75443200 75443200 75502400
 3338   75508800 75508800 75510400 75507200 75531200 75566400
 3332   75571200 75572800 75577600 75558400 75555200 75561600
 3326   75555200 75569600 75609600 75625600 75628800 75638400
 3320   75622400 75617600 75617600 75564800 75563200 75622400
 3314   75608000 75603200 75652800 75652800 75676800 75726400
 3308   75734400 75740800 75739200 75724800 75723200 75718400
 3302   75720000 75766400 75774400 75710400 75737600 75811200
 3296   75803200 75790400 75824000 75878400 75905600 75860800
 3290   75822400 75803200 75803200 75844800 75891200 75897600
 3284   75864000 75852800 75915200 75947200 75944000 75950400
 3278   75950400 75918400 75889600 75960000 76004800 75974400
 3272   75977600 75969600 75982400 76035200 76020800 76001600
 3266   76035200 76022400 75976000 75947200 76012800 76070400
 3260   76049600 76041600 76070400 76054400 76027200 76070400
 3254   76105600 76062400 76064000 76083200 76083200 76126400
 3248   76144000 76120000 76139200 76163200 76155200 76171200
 3242   76217600 76193600 76176000 76190400 76148800 76160000
 3236   76188800 76188800 76220800 76241600 76219200 76249600
 3230   76304000 76268800 76272000 76291200 76313600 76353600
 3224   76345600 76323200 76320000 76292800 76302400 76326400
 3218   76352000 76344000 76347200 76371200 76345600 76358400
 3212   76360000 76345600 76392000 76427200 76427200 76419200
 3206   76425600 76417600 76420800 76462400 76467200 76494400
 3200   76518400 76478400 76472000 76491200 76494400 76523200
 3194   76521600 76512000 76544000 76558400 76534400 76496000
 3188   76512000 76544000 76489600 76484800 76531200 76560000
 3182   76614400 76649600 76636800 76595200 76548800 76560000
 3176   76617600 76612800 76585600 76600000 76593600 76625600
 3170   76692800 76667200 76646400 76704000 76728000 76705600
 3164   76697600 76654400 76649600 76716800 76758400 76726400
 3158   76692800 76753600 76768000 76745600 76785600 76801600
 3152   76798400 76835200 76830400 76796800 76763200 76756800
 3146   76790400 76817600 76859200 76883200 76868800 76867200
 3140   76870400 76852800 76876800 76892800 76878400 76865600
 3134   76892800 76864000 76846400 76896000 76892800 76932800
 3128   76966400 76905600 76902400 76960000 77001600 77011200
 3122   76977600 76964800 76977600 76971200 76988800 77004800
 3116   77016000 77020800 77008000 77032000 77041600 77048000
 3110   77054400 77030400 77057600 77059200 77004800 77019200
 3104   77060800 77097600 77110400 77099200 77092800 77070400
 3098   77062400 77086400 77134400 77185600 77198400 77160000
 3092   77160000 77208000 77236800 77214400 77238400 77272000
 3086   77256000 77260800 77289600 77291200 77256000 77230400
 3080   77240000 77268800 77268800 77270400 77334400 77372800
 3074   77342400 77302400 77310400 77384000 77395200 77380800
 3068   77368000 77328000 77360000 77406400 77430400 77459200
 3062   77430400 77412800 77452800 77492800 77496000 77483200
 3056   77507200 77516800 77534400 77553600 77534400 77539200
 3050   77518400 77528000 77558400 77608000 77593600 77587200
 3044   77617600 77603200 77604800 77614400 77587200 77603200
 3038   77648000 77654400 77636800 77619200 77656000 77628800
 3032   77571200 77636800 77704000 77673600 77633600 77636800
 3026   77668800 77700800 77724800 77720000 77705600 77747200
 3020   77801600 77772800 77747200 77768000 77782400 77779200
 3014   77806400 77784000 77782400 77835200 77832000 77801600
 3008   77784000 77800000 77832000 77852800 77838400 77849600
 3002   77896000 77881600 77843200 77873600 77920000 77902400
 2996   77907200 77934400 77929600 77960000 77998400 78001600
 2990   77977600 77974400 77980800 78003200 78020800 78011200
 2984   77977600 77993600 78041600 78032000 78014400 78019200
 2978   78000000 78006400 78028800 78020800 78004800 77993600
 2972   77993600 78017600 78006400 77998400 78008000 78016000
 2966   78030400 78043200 78073600 78084800 78083200 78070400
 2960   78089600 78110400 78124800 78148800 78156800 78126400
 2954   78136000 78196800 78209600 78177600 78198400 78209600
 2948   78169600 78145600 78131200 78110400 78104000 78110400
 2942   78152000 78185600 78176000 78118400 78120000 78148800
 2936   78113600 78112000 78129600 78104000 78118400 78235200
 2930   78262400 78216000 78228800 78304000 78358400 78377600
 2924   78374400 78318400 78355200 78432000 78396800 78403200
 2918   78467200 78478400 78454400 78452800 78489600 78516800
 2912   78542400 78536000 78563200 78648000 78681600 78656000
 2906   78662400 78686400 78680000 78678400 78691200 78734400
 2900   78732800 78744000 78796800 78806400 78793600 78819200
 2894   78835200 78827200 78832000 78843200 78852800 78854400
 2888   78876800 78912000 78910400 78915200 78929600 78907200
 2882   78908800 78932800 78950400 78944000 78958400 78940800
 2876   78945600 78993600 79008000 79012800 79000000 79016000
 2870   79068800 79054400 79030400 78990400 78945600 78980800
 2864   79004800 79025600 79048000 79108800 79132800 79092800
 2858   79105600 79115200 79123200 79196800 79243200 79211200
 2852   79208000 79268800 79286400 79300800 79339200 79294400
 2846   79278400 79342400 79352000 79366400 79416000 79401600
 2840   79380800 79408000 79448000 79484800 79492800 79483200
 2834   79488000 79443200 79473600 79526400 79505600 79513600
 2828   79548800 79547200 79544000 79553600 79572800 79579200
 2822   79622400 79662400 79643200 79614400 79632000 79638400
 2816   79644800 79664000 79672000 79697600 79689600 79673600
 2810   79691200 79718400 79720000 79726400 79760000 79766400
 2804   79756800 79806400 79808000 79748800 79755200 79809600
 2798   79803200 79804800 79838400 79872000 79899200 79875200
 2792   79841600 79862400 79932800 79955200 79888000 79860800
 2786   79878400 79865600 79916800 79992000 79980800 79956800
 2780   79987200 80001600 79988800 79990400 80025600 80033600
 2774   80019200 80046400 80044800 80052800 80060800 80088000
 2768   80100800 80078400 80051200 80080000 80096000 80072000
 2762   80078400 80136000 80168000 80163200 80155200 80132800
 2756   80134400 80187200 80238400 80228800 80174400 80182400
 2750   80230400 80228800 80233600 80240000 80236800 80267200
 2744   80280000 80257600 80249600 80270400 80281600 80313600
 2738   80353600 80337600 80321600 80336000 80356800 80398400
 2732   80382400 80345600 80360000 80364800 80369600 80387200
 2726   80388800 80401600 80428800 80457600 80476800 80456000
 2720   80456000 80462400 80449600 80443200 80486400 80515200
 2714   80504000 80484800 80478400 80492800 80500800 80480000
 2708   80492800 80539200 80524800 80510400 80532800 80515200
 2702   80520000 80548800 80534400 80550400 80540800 80531200
 2696   80553600 80552000 80534400 80521600 80516800 80520000
 2690   80545600 80574400 80564800 80534400 80492800 80513600
 2684   80544000 80523200 80499200 80480000 80475200 80472000
 2678   80446400 80424000 80470400 80516800 80478400 80441600
 2672   80430400 80449600 80422400 80360000 80355200 80356800
 2666   80304000 80281600 80302400 80307200 80249600 80214400
 2660   80225600 80182400 80131200 80145600 80158400 80092800
 2654   80056000 80043200 79958400 79883200 79860800 79816000
 2648   79763200 79715200 79630400 79516800 79438400 79363200
 2642   79238400 79081600 78940800 78782400 78622400 78528000
 2636   78436800 78251200 78035200 77888000 77779200 77672000
 2630   77552000 77464000 77368000 77259200 77188800 77134400
 2624   77056000 76980800 76940800 76873600 76787200 76734400
 2618   76659200 76582400 76568000 76529600 76478400 76430400
 2612   76348800 76292800 76248000 76153600 76099200 76091200
 2606   76051200 76000000 75980800 75902400 75832000 75872000
 2600   75840000 75756800 75723200 75707200 75686400 75620800
 2594   75566400 75553600 75505600 75435200 75395200 75400000
 2588   75342400 75289600 75305600 75312000 75308800 75307200
 2582   75278400 75257600 75262400 75296000 75308800 75284800
 2576   75294400 75353600 75348800 75326400 75340800 75336000
 2570   75344000 75388800 75417600 75388800 75364800 75369600
 2564   75372800 75363200 75353600 75352000 75332800 75332800
 2558   75350400 75328000 75302400 75276800 75262400 75216000
 2552   75164800 75128000 75065600 75016000 74990400 74932800
 2546   74857600 74796800 74739200 74672000 74620800 74569600
 2540   74510400 74484800 74401600 74313600 74275200 74217600
 2534   74129600 74080000 74052800 74019200 74000000 73988800
 2528   73966400 73916800 73913600 73944000 73932800 73878400
 2522   73844800 73840000 73841600 73832000 73822400 73809600
 2516   73774400 73761600 73764800 73707200 73665600 73707200
 2510   73715200 73673600 73640000 73614400 73596800 73595200
 2504   73553600 73500800 73488000 73473600 73425600 73352000
 2498   73288000 73228800 73198400 73171200 73097600 73049600
 2492   73019200 72960000 72865600 72796800 72766400 72691200
 2486   72574400 72478400 72403200 72260800 72123200 72020800
 2480   71923200 71784000 71638400 71460800 71296000 71131200
 2474   70939200 70780800 70609600 70395200 70217600 70052800
 2468   69886400 69716800 69539200 69376000 69230400 69057600
 2462   68888000 68718400 68529600 68339200 68195200 68064000
 2456   67921600 67747200 67580800 67473600 67356800 67206400
 2450   67084800 66969600 66896000 66833600 66731200 66646400
 2444   66558400 66456000 66368000 66280000 66156800 66033600
 2438   65964800 65924800 65860800 65758400 65667200 65600000
 2432   65561600 65528000 65416000 65288000 65222400 65171200
 2426   65081600 64977600 64883200 64806400 64744000 64625600
 2420   64499200 64406400 64328000 64208000 64088000 63987200
 2414   63860800 63732800 63616000 63489600 63356800 63212800
 2408   63060800 62924800 62779200 62590400 62350400 62164800
 2402   61992000 61771200 61499200 61268800 61040000 60808000
 2396   60564800 60329600 60096000 59868800 59587200 59326400
 2390   59076800 58822400 58528000 58204800 57872000 57579200
 2384   57297600 56921600 56476800 56070400 55668800 55212800
 2378   54747200 54244800 53752000 53320000 52920000 52460800
 2372   52056000 51697600 51382400 51052800 50752000 50465600
 2366   50305600 50264000 50315200 50376000 50468800 50630400
 2360   50928000 51228800 51528000 51950400 52412800 52828800
 2354   53315200 53944000 54539200 55208000 55942400 56636800
 2348   56910400 56904000 56913600 57107200 57470400 57913600
 2342   58371200 58852800 59249600 59691200 60190400 60622400
 2336   60977600 61465600 61825600 62073600 62305600 62513600
 2330   62793600 63100800 63433600 63744000 64011200 64190400
 2324   64412800 64595200 64892800 65044800 65355200 65491200
 2318   65774400 66022400 66371200 66483200 66729600 66862400
 2312   67140800 67360000 67672000 67814400 67987200 68264000
 2306   68552000 68785600 69004800 69265600 69510400 69750400
 2300   69955200 70243200 70499200 70728000 71028800 71392000
 2294   71680000 71987200 72345600 72710400 73105600 73497600
 2288   73915200 74292800 74652800 75019200 75411200 75817600
 2282   76118400 76403200 76705600 76998400 77286400 77550400
 2276   77752000 77958400 78211200 78452800 78660800 78856000
 2270   79054400 79243200 79408000 79580800 79760000 79883200
 2264   80024000 80184000 80345600 80483200 80627200 80763200
 2258   80838400 80955200 81097600 81195200 81302400 81422400
 2252   81521600 81606400 81699200 81801600 81888000 81974400
 2246   82033600 82107200 82192000 82233600 82256000 82305600
 2240   82358400 82404800 82473600 82542400 82558400 82593600
 2234   82680000 82748800 82776000 82772800 82796800 82857600
 2228   82907200 82918400 82928000 82995200 83067200 83107200
 2222   83092800 83094400 83129600 83152000 83203200 83251200
 2216   83262400 83281600 83299200 83324800 83344000 83363200
 2210   83382400 83430400 83510400 83526400 83508800 83505600
 2204   83529600 83571200 83598400 83620800 83638400 83640000
 2198   83664000 83724800 83723200 83708800 83752000 83806400
 2192   83830400 83832000 83852800 83875200 83883200 83904000
 2186   83923200 83929600 83923200 83948800 84011200 84019200
 2180   83974400 83982400 84014400 84036800 84080000 84145600
 2174   84147200 84105600 84080000 84096000 84147200 84184000
 2168   84203200 84235200 84236800 84248000 84300800 84313600
 2162   84273600 84270400 84297600 84313600 84345600 84390400
 2156   84388800 84348800 84369600 84428800 84464000 84459200
 2150   84460800 84489600 84508800 84475200 84513600 84571200
 2144   84556800 84545600 84585600 84635200 84640000 84633600
 2138   84649600 84646400 84688000 84758400 84764800 84752000
 2132   84755200 84792000 84796800 84814400 84873600 84904000
 2126   84897600 84867200 84875200 84916800 84947200 84982400
 2120   84988800 84988800 84998400 85020800 85025600 85011200
 2114   85025600 85030400 85056000 85097600 85131200 85124800
 2108   85112000 85153600 85169600 85155200 85171200 85216000
 2102   85243200 85238400 85244800 85236800 85260800 85336000
 2096   85374400 85350400 85329600 85340800 85366400 85377600
 2090   85404800 85440000 85436800 85428800 85464000 85476800
 2084   85451200 85457600 85475200 85497600 85521600 85518400
 2078   85571200 85625600 85640000 85616000 85604800 85611200
 2072   85609600 85622400 85651200 85702400 85755200 85755200
 2066   85710400 85672000 85704000 85774400 85780800 85764800
 2060   85769600 85787200 85820800 85840000 85846400 85868800
 2054   85865600 85878400 85913600 85880000 85884800 85910400
 2048   85912000 85889600 85915200 85944000 85966400 85968000
 2042   85915200 85870400 85905600 85934400 85932800 85910400
 2036   85868800 85868800 85913600 85936000 85878400 85809600
 2030   85814400 85820800 85790400 85793600 85795200 85736000
 2024   85673600 85652800 85678400 85678400 85649600 85635200
 2018   85628800 85571200 85518400 85534400 85560000 85534400
 2012   85478400 85457600 85473600 85457600 85425600 85422400
 2006   85387200 85358400 85315200 85296000 85315200 85267200
 2000   85150400 85108800 85076800 84955200 84832000 84768000
 1994   84646400 84449600 84188800 84017600 83892800 83672000
 1988   83467200 83288000 83083200 82865600 82689600 82472000
 1982   82256000 82100800 81998400 81900800 81800000 81720000
 1976   81697600 81686400 81648000 81668800 81656000 81620800
 1970   81646400 81654400 81534400 81432000 81451200 81468800
 1964   81460800 81417600 81336000 81296000 81270400 81232000
 1958   81198400 81155200 81096000 81017600 80916800 80870400
 1952   80844800 80803200 80761600 80656000 80563200 80478400
 1946   80364800 80275200 80174400 79888000 79712000 79776000
 1940   79728000 79670400 79600000 79497600 79486400 79524800
 1934   79508800 79505600 79584000 79678400 79731200 79777600
 1928   79825600 79900800 80003200 80099200 80137600 80057600
 1922   80096000 80270400 80376000 80361600 80251200 80360000
 1916   80526400 80585600 80636800 80638400 80574400 80489600
 1910   80398400 80401600 80393600 80336000 80262400 80166400
 1904   80046400 79921600 79782400 79656000 79526400 79340800
 1898   79166400 78984000 78761600 78569600 78465600 78371200
 1892   78278400 78148800 77888000 77686400 77688000 77680000
 1886   77635200 77552000 77529600 77547200 77563200 77601600
 1880   77649600 77681600 77723200 77780800 77849600 77942400
 1874   78057600 78128000 78140800 78107200 77924800 77734400
 1868   77790400 77899200 77976000 78028800 77953600 77857600
 1862   77809600 77745600 77665600 77590400 77592000 77676800
 1856   77779200 77864000 77945600 78073600 78220800 78302400
 1850   78342400 78395200 78377600 78403200 78502400 78326400
 1844   78049600 78387200 78672000 78705600 78697600 78753600
 1838   78763200 78700800 78726400 78763200 78694400 78582400
 1832   78550400 78436800 78086400 78110400 78425600 78478400
 1826   78211200 77942400 78091200 78163200 78065600 77977600
 1820   77889600 77784000 77630400 77484800 77379200 77238400
 1814   77059200 76865600 76654400 76368000 76206400 76147200
 1808   75958400 75740800 75622400 75489600 75305600 75105600
 1802   74902400 74748800 74505600 74417600 74534400 74467200
 1796   74320000 74331200 74320000 74030400 73902400 74187200
 1790   74569600 74926400 75200000 75470400 75688000 75859200
 1784   76249600 76689600 76947200 77128000 77456000 77876800
 1778   78236800 78497600 78622400 78827200 79014400 78920000
 1772   78867200 79304000 79792000 79920000 79910400 80278400
 1766   80593600 80748800 80865600 80828800 80580800 80739200
 1760   81136000 81259200 81228800 81076800 81148800 81395200
 1754   81523200 81507200 81232000 80860800 81084800 81081600
 1748   81011200 81192000 81356800 81380800 81171200 81068800
 1742   81262400 81230400 80835200 80859200 81137600 81224000
 1736   81105600 80544000 79832000 80283200 80819200 80915200
 1730   80787200 80896000 81088000 81180800 81198400 81153600
 1724   81019200 80952000 81092800 81073600 80902400 80398400
 1718   79849600 80048000 80291200 80190400 80270400 80579200
 1712   80728000 80670400 80601600 80692800 80713600 80462400
 1706   80344000 80408000 80480000 80747200 80785600 80148800
 1700   79238400 80313600 80860800 80848000 80363200 80635200
 1694   81296000 81585600 81704000 81700800 81643200 81648000
 1688   81740800 81920000 81872000 81190400 80548800 81321600
 1682   82040000 82204800 82172800 82417600 82635200 82680000
 1676   82358400 82040000 82580800 82896000 82784000 82716800
 1670   82673600 82510400 83064000 83553600 83736000 83836800
 1664   83814400 83536000 83691200 84108800 84310400 84457600
 1658   84547200 84584000 84540800 84176000 83385600 82518400
 1652   83545600 84524800 84873600 84707200 84240000 84057600
 1646   84126400 84547200 84913600 84982400 84936000 84870400
 1640   84792000 84667200 84379200 84118400 83720000 83347200
 1634   84088000 84515200 84580800 84593600 84640000 84537600
 1628   84283200 84451200 84760000 84710400 84321600 84212800
 1622   84582400 84766400 84825600 84779200 84580800 84020800
 1616   84016000 84584000 84780800 84782400 84744000 84694400
 1610   84608000 84539200 84556800 84552000 84548800 84508800
 1604   84417600 84334400 84256000 84177600 84110400 84041600
 1598   83953600 83822400 83651200 83488000 83361600 83275200
 1592   83145600 83030400 82899200 82782400 82681600 82550400
 1586   82411200 82284800 82200000 82137600 82102400 82009600
 1580   81929600 81846400 81662400 81187200 80641600 81035200
 1574   81350400 81310400 81179200 80947200 80345600 80091200
 1568   80417600 80456000 80182400 79718400 79564800 79488000
 1562   79184000 78622400 77265600 76248000 76016000 76537600
 1556   76819200 76382400 75641600 75552000 75364800 74793600
 1550   74129600 73976000 74064000 73993600 73811200 73713600
 1544   74030400 74278400 74459200 74740800 74640000 74987200
 1538   76164800 76875200 77190400 77284800 77124800 77280000
 1532   77904000 78340800 78608000 78603200 78611200 78817600
 1526   78912000 79080000 79483200 79534400 79291200 79256000
 1520   79897600 80518400 80457600 80193600 80641600 81073600
 1514   81388800 81419200 81348800 81523200 81473600 81291200
 1508   80979200 80398400 80491200 81393600 81964800 82139200
 1502   82126400 82081600 81953600 81670400 81611200 81526400
 1496   81161600 81256000 81308800 81187200 80944000 80315200
 1490   79718400 79745600 79665600 79323200 79267200 79185600
 1484   78948800 78696000 78368000 78016000 77819200 77675200
 1478   77475200 77064000 76603200 76564800 76280000 75600000
 1472   75278400 75438400 75512000 75321600 75056000 74777600
 1466   74430400 73916800 73777600 73873600 73748800 73483200
 1460   73108800 72550400 72062400 71681600 71697600 71963200
 1454   72102400 72128000 72022400 72057600 72158400 72148800
 1448   72107200 72384000 72785600 73059200 73296000 73572800
 1442   73804800 73952000 74089600 74168000 74012800 73515200
 1436   73561600 73960000 74027200 73979200 73985600 73942400
 1430   73758400 73788800 73964800 74057600 74104000 74107200
 1424   74028800 74190400 74380800 74344000 74056000 73804800
 1418   74148800 74420800 74572800 74683200 74760000 74780800
 1412   74830400 74988800 75187200 75438400 75803200 76233600
 1406   76576000 76883200 77451200 78003200 78486400 78916800
 1400   79196800 79483200 79955200 80408000 80707200 80852800
 1394   81228800 81742400 82043200 82190400 82331200 82401600
 1388   82267200 82268800 82545600 82697600 82716800 82715200
 1382   82608000 82396800 82184000 81945600 81656000 81342400
 1376   80840000 80204800 79651200 79270400 78932800 78409600
 1370   77761600 77121600 76577600 76115200 75585600 75059200
 1364   74499200 73886400 73564800 73281600 73032000 72865600
 1358   72643200 72377600 72038400 71630400 71219200 70774400
 1352   70248000 69716800 69280000 68980800 68857600 68852800
 1346   68848000 68876800 68833600 68670400 68427200 68003200
 1340   67528000 67102400 66656000 66116800 65499200 64881600
 1334   64204800 63500800 62795200 62067200 61356800 60670400
 1328   60001600 59372800 58803200 58283200 57825600 57438400
 1322   57099200 56697600 56150400 55446400 54646400 53678400
 1316   52508800 51179200 49683200 47972800 46024000 43832000
 1310   41307200 38433600 35251200 31899200 28555200 25438400
 1304   22774400 20720000 19212800 18078400 17187200 16403200
 1298   15678400 15057600 14440000 13833600 13265600 12744000
 1292   12180800 11656000 11142400 10684800 10246400 9780800
 1286   9344000 8947200 8492800 8030400 7566400 7089600
 1280   6593600 6086400 5564800 5030400 4489600 3908800
 1274   3364800 2902400 2424000 1955200 1536000 1171200
 1268   892800 625600 440000 270400 142400 56000
 1262   32000-3200-24000-20800 12800 33600
 1256   6400-35200-8000 40000 54400 28800
 1250  -28800-67200-38400 33600-1600-48000
 1244  -27200 14400-25600-22400 14400 11200
 1238  -51200-48000-11200-1600-4800 8000
 1232   11200 8000-9600 3200 8000-9600
 1226   11200 43200 24000 35200 40000-14400
 1220  -49600-56000-11200-30400-9600 12800
 1214   9600-3200-14400-32000 12800 25600
 1208   8000 1600 32000 16000-9600 3200
 1202   28800-14400-44800-20800 3200 9600
 1196   17600 9600-22400-24000-6400 9600
 1190  -20800-28800-8000 27200 14400 20800
 1184   44800 57600-11200-19200-6400 16000
 1178   30400 27200 9600 27200 22400-8000
 1172  -8000 0 0 25600 27200-12800
 1166   20800 32000 0-22400-27200-44800
 1160  -49600-49600-25600-11200-4800 11200
 1154   22400-9600-20800-38400-20800 3200
 1148  -28800-46400-16000 4800-3200-3200
 1142   6400 12800 17600 6400 8000 22400
 1136   19200 83200 156800 265600 425600 678400
 1130   1033600 1585600 2310400 3201600 4204800 5268800
 1124   6276800 7296000 8316800 9385600 10584000 11819200
 1118   13044800 14297600 15555200 16841600 18131200 19364800
 1112   20617600 21873600 23152000 24409600 25660800 26915200
 1106   28112000 29216000 30313600 31385600 32408000 33363200
 1100   34321600 35240000 36105600 36979200 37801600 38593600
 1094   39430400 40216000 40969600 41756800 42526400 43238400
 1088   43884800 44564800 45304000 46035200 46697600 47361600
 1082   48033600 48696000 49372800 49979200 50552000 51184000
 1076   51760000 52270400 52820800 53356800 53876800 54401600
 1070   54916800 55419200 55924800 56440000 56960000 57470400
 1064   57947200 58411200 58889600 59379200 59876800 60318400
 1058   60673600 61054400 61499200 61905600 62264000 62563200
 1052   62896000 63180800 63468800 63734400 64035200 64334400
 1046   64588800 64763200 64918400 65172800 65452800 65644800
 1040   65897600 66179200 66390400 66619200 66848000 67067200
 1034   67296000 67499200 67737600 67987200 68192000 68392000
 1028   68566400 68772800 68987200 69134400 69289600 69476800
 1022   69640000 69772800 69881600 69987200 70105600 70219200
 1016   70251200 70294400 70374400 70412800 70449600 70470400
 1010   70494400 70532800 70524800 70510400 70531200 70566400
 1004   70572800 70612800 70673600 70708800 70756800 70780800
 998    70832000 70944000 71033600 71078400 71196800 71342400
 992    71448000 71537600 71668800 71830400 72004800 72155200
 986    72294400 72424000 72504000 72587200 72742400 72900800
 980    72969600 73027200 73148800 73270400 73291200 73334400
 974    73368000 73382400 73392000 73376000 73401600 73425600
 968    73390400 73377600 73283200 73174400 73084800 72972800
 962    72889600 72830400 72673600 72537600 72408000 72246400
 956    72123200 72008000 71809600 71604800 71459200 71300800
 950    71078400 70876800 70708800 70492800 70291200 70094400
 944    69912000 69814400 69652800 69436800 69305600 69182400
 938    69035200 68972800 69020800 69040000 69120000 69302400
 932    69476800 69705600 69980800 70209600 70435200 70620800
 926    70753600 70958400 71164800 71233600 71208000 71238400
 920    71305600 71353600 71403200 71496000 71593600 71622400
 914    71672000 71747200 71819200 71883200 71880000 71864000
 908    71894400 71888000 71876800 71793600 71672000 71593600
 902    71478400 71337600 71251200 71190400 71044800 70926400
 896    70836800 70766400 70740800 70659200 70563200 70440000
 890    70313600 70134400 69934400 69769600 69544000 69278400
 884    69092800 68966400 68756800 68528000 68320000 68123200
 878    67926400 67678400 67428800 67220800 67075200 67009600
 872    66808000 66587200 66467200 66299200 66051200 65763200
 866    65451200 65132800 64817600 64545600 64267200 63988800
 860    63728000 63465600 63222400 62948800 62739200 62673600
 854    62705600 62724800 62750400 62844800 62992000 63156800
 848    63243200 63342400 63483200 63545600 63572800 63633600
 842    63728000 63784000 63873600 63931200 63894400 63920000
 836    63958400 63948800 63921600 63843200 63750400 63617600
 830    63492800 63414400 63318400 63216000 63150400 63062400
 824    62987200 62992000 62977600 62912000 62923200 62913600
 818    62862400 62988800 63089600 62955200 62950400 62971200
 812    62764800 62502400 62238400 61894400 61456000 60920000
 806    60456000 60080000 59510400 58803200 58136000 57174400
 800    55857600 54340800 52433600 50219200 47907200 45572800
 794    43340800 41230400 39225600 37452800 35900800 34571200
 788    33545600 32696000 31969600 31432000 31147200 31054400
 782    31100800 31208000 31329600 31422400 31472000 31481600
 776    31422400 31347200 31398400 31448000 31681600 32150400
 770    32859200 33921600 35328000 36798400 38204800 39689600
 764    41244800 42708800 44006400 45140800 46088000 46772800
 758    47216000 47396800 47318400 47228800 46984000 46540800
 752    45734400 44300800 42200000 39540800 36502400 33604800
 746    31025600 28761600 26958400 25643200 24830400 24553600
 740    24856000 25782400 27398400 29585600 31968000 34120000
 734    35598400 36072000 35356800 33585600 31398400 29310400
 728    27553600 25934400 24412800 23180800 22230400 21524800
 722    21171200 20798400 20528000 20520000 20942400 21926400
 716    23212800 24369600 25414400 26256000 26724800 26907200
 710    27064000 27220800 27353600 27547200 27700800 27856000
 704    28092800 28334400 28552000 28902400 29424000 30166400
 698    31008000 31913600 32801600 33672000 34440000 35161600
 692    35732800 36225600 36659200 37084800 37422400 37500800
 686    37504000 37440000 37014400 36254400 35419200 34510400
 680    33587200 32576000 31512000 30393600 29264000 27985600
 674    26844800 25633600 24219200 22638400 21145600 19422400
 668    17176000 15838400 15099200 13737600 12262400 10819200
 662    9494400 8385600 7416000 6408000 5476800 4694400
 656    3892800 3120000 2507200 1995200 1409600 931200
 650    571200 344000 216000 179200 72000 41600
 644   -6400-67200-131200-102400-76800-64000
 638   -70400-25600 30400 145600 227200 310400
 632    329600 363200 326400 188800 120000 97600
 626    219200 350400 590400 800000 984000 1304000
 620    1846400 2561600 3332800 4102400 4928000 5846400
 614    7131200 8470400 9750400 11070400 12630400 14193600
 608    15641600 17160000 18790400 20259200 21652800 23009600
 602    23992000 24844800 25763200 26582400 27292800 27880000
 596    28353600 28848000 29113600 29209600 29304000 29436800
 590    29433600 29393600 29313600 29152000 28768000 28387200
 584    28062400 27630400 26992000 26409600 25936000 25380800
 578    24566400 23649600 22646400 21457600 20392000 19382400
 572    18208000 16932800 15688000 14398400 13217600 11915200
 566    10516800 9011200 7688000 6032000 4422400 3300800
 560    2219200 1062400 456000 302400 108800-19200
 554    116800 273600 456000 598400 708800 902400
 548    1112000 1243200 1033600 852800 785600 648000
 542    425600 328000 145600 68800 20800 11200
 536   -140800-81600-4800-78400-28800 56000
 530    36800-32000-176000-155200-110400-102400
 524   -46400-54400-105600-150400-73600-51200
 518   -67200-12800 19200-6400 212800 52800
 512    33600 241600 163200-129600-201600-36800
 506   -1600-78400-56000-115200 20800 163200
 500    542400 1214400 1553600 2038400 3144000 4414400
 494    5856000 7636800 9465600 11518400 13814400 16430400
 488    19102400 21436800 23664000 26252800 28926400 31230400
 482    33198400 34976000 36809600 38545600 39992000 41108800
 476    42366400 44001600 45126400 45862400 47406400 49092800
 470    50449600 51713600 52724800 54049600 55568000 56608000
 464    57384000 58884800 60163200 60750400 61656000 62755200
 458    63832000 65262400 66355200 67246400 67966400 68278400
 452    68662400 69384000 70168000
##END= 
