##TITLE=1,2-dichloroethane
##JCAMP-DX=4.24
##DATA TYPE=INFRARED SPECTRUM
##CLASS=COBLENTZ
##ORIGIN=DOW CHEMICAL COMPANY
##OWNER=Copyright (C) 1987 by the Coblentz Society
Collection (C) 2009 copyright by the U.S. Secretary of Commerce
on behalf of the United States of America. All rights reserved.
##DATE=1964
##NAMES=1,2-dichloroethane
ETHYLENE DICHLORIDE
##CAS REGISTRY NO=107-06-2
##MOLFORM=C2 H4 Cl2
##SOURCE REFERENCE=COBLENTZ NO. 8833
##$NIST SOURCE=COBLENTZ
##$NIST IMAGE=cob8833
##SPECTROMETER/DATA SYSTEM=DOW KBr FOREPRISM-GRATING
##INSTRUMENT PARAMETERS=GRATING CHANGED AT 5.0, 7.5, 15.0 MICRON
##STATE=GAS
##PARTIAL_PRESSURE=50 mmHg
##PATH LENGTH=5 CM
##SAMPLING PROCEDURE=TRANSMISSION
##RESOLUTION=2
##DATA PROCESSING=DIGITIZED BY COBLENTZ SOCIETY (BATCH II) FROM HARD COPY
##XUNITS=1/CM
##YUNITS=TRANSMITTANCE
##XFACTOR=1.0
##YFACTOR=1
##FIRSTX=382
##LASTX=3766
##FIRSTY=0.8117
##MAXX=3766
##MINX=382
##MAXY=0.9055
##MINY=0.0505
##NPOINTS=3385
##XYDATA=(X++(Y..Y))
382.000000 0.8117 0.8117 0.8117 0.8117 0.8117
387.000000 0.8117 0.8117 0.8116 0.8116 0.8116
392.000000 0.8116 0.8115 0.8115 0.8115 0.8114
397.000000 0.8114 0.8114 0.8113 0.8113 0.8112
402.000000 0.8112 0.8112 0.8113 0.8115 0.8116
407.000000 0.8117 0.8119 0.8120 0.8122 0.8123
412.000000 0.8127 0.8130 0.8134 0.8137 0.8140
417.000000 0.8144 0.8147 0.8151 0.8154 0.8161
422.000000 0.8168 0.8175 0.8182 0.8189 0.8196
427.000000 0.8202 0.8209 0.8216 0.8223 0.8230
432.000000 0.8236 0.8241 0.8247 0.8253 0.8258
437.000000 0.8264 0.8270 0.8276 0.8281 0.8287
442.000000 0.8293 0.8298 0.8304 0.8310 0.8315
447.000000 0.8320 0.8324 0.8328 0.8333 0.8337
452.000000 0.8341 0.8345 0.8350 0.8354 0.8358
457.000000 0.8362 0.8367 0.8371 0.8375 0.8377
462.000000 0.8380 0.8382 0.8385 0.8387 0.8390
467.000000 0.8392 0.8395 0.8397 0.8400 0.8403
472.000000 0.8405 0.8408 0.8410 0.8411 0.8410
477.000000 0.8409 0.8408 0.8407 0.8406 0.8405
482.000000 0.8404 0.8403 0.8402 0.8401 0.8400
487.000000 0.8399 0.8396 0.8393 0.8389 0.8386
492.000000 0.8382 0.8378 0.8375 0.8371 0.8368
497.000000 0.8364 0.8361 0.8357 0.8353 0.8348
502.000000 0.8343 0.8338 0.8333 0.8328 0.8323
507.000000 0.8318 0.8313 0.8308 0.8303 0.8298
512.000000 0.8293 0.8288 0.8283 0.8279 0.8300
517.000000 0.8272 0.8269 0.8266 0.8262 0.8259
522.000000 0.8256 0.8253 0.8250 0.8246 0.8243
527.000000 0.8240 0.8237 0.8233 0.8230 0.8227
532.000000 0.8225 0.8225 0.8224 0.8224 0.8223
537.000000 0.8223 0.8222 0.8222 0.8222 0.8221
542.000000 0.8221 0.8221 0.8221 0.8222 0.8222
547.000000 0.8223 0.8223 0.8224 0.8224 0.8226
552.000000 0.8228 0.8229 0.8231 0.8232 0.8234
557.000000 0.8235 0.8237 0.8238 0.8240 0.8241
562.000000 0.8243 0.8245 0.8246 0.8248 0.8249
567.000000 0.8251 0.8252 0.8254 0.8255 0.8257
572.000000 0.8259 0.8260 0.8262 0.8268 0.8273
577.000000 0.8279 0.8285 0.8291 0.8297 0.8302
582.000000 0.8308 0.8314 0.8321 0.8328 0.8335
587.000000 0.8342 0.8350 0.8357 0.8364 0.8371
592.000000 0.8378 0.8386 0.8393 0.8400 0.8407
597.000000 0.8414 0.8422 0.8429 0.8436 0.8442
602.000000 0.8448 0.8454 0.8460 0.8465 0.8471
607.000000 0.8477 0.8483 0.8488 0.8494 0.8500
612.000000 0.8506 0.8512 0.8517 0.8523 0.8529
617.000000 0.8533 0.8536 0.8539 0.8541 0.8544
622.000000 0.8547 0.8550 0.8552 0.8555 0.8558
627.000000 0.8560 0.8563 0.8566 0.8568 0.8571
632.000000 0.8573 0.8593 0.8576 0.8572 0.8567
637.000000 0.8563 0.8559 0.8554 0.8536 0.8518
642.000000 0.8500 0.8481 0.8460 0.8435 0.8410
647.000000 0.8386 0.8361 0.8336 0.8312 0.8287
652.000000 0.8262 0.8237 0.8212 0.8192 0.8176
657.000000 0.8159 0.8151 0.8149 0.8148 0.8151
662.000000 0.8157 0.8166 0.8181 0.8197 0.8214
667.000000 0.8232 0.8224 0.8215 0.8174 0.8103
672.000000 0.8035 0.7977 0.7926 0.7894 0.7861
677.000000 0.7834 0.7802 0.7760 0.7688 0.7585
682.000000 0.7475 0.7387 0.7296 0.7199 0.7172
687.000000 0.7172 0.7177 0.7230 0.7311 0.7392
692.000000 0.7417 0.7291 0.6928 0.6930 0.7232
697.000000 0.7544 0.7616 0.7562 0.7413 0.7264
702.000000 0.7136 0.7128 0.7117 0.7101 0.7007
707.000000 0.6674 0.6341 0.6009 0.5676 0.5343
712.000000 0.5010 0.4437 0.4024 0.3610 0.3196
717.000000 0.2782 0.2368 0.1954 0.1540 0.1126
722.000000 0.0753 0.0567 0.0544 0.0538 0.0540
727.000000 0.0544 0.0548 0.0551 0.0546 0.0559
732.000000 0.0515 0.0505 0.0505 0.0514 0.0530
737.000000 0.0560 0.0620 0.0758 0.2198 0.3872
742.000000 0.4621 0.6655 0.8275 0.8469 0.8622
747.000000 0.8656 0.8681 0.8692 0.8703 0.8707
752.000000 0.8707 0.8707 0.8707 0.8707 0.8707
757.000000 0.8707 0.8708 0.8709 0.8710 0.8711
762.000000 0.8711 0.8712 0.8713 0.8713 0.8714
767.000000 0.8715 0.8717 0.8719 0.8721 0.8723
772.000000 0.8725 0.8727 0.8729 0.8744 0.8759
777.000000 0.8773 0.8782 0.8791 0.8800 0.8807
782.000000 0.8809 0.8810 0.8813 0.8816 0.8819
787.000000 0.8822 0.8825 0.8829 0.8834 0.8839
792.000000 0.8844 0.8849 0.8854 0.8859 0.8864
797.000000 0.8872 0.8879 0.8886 0.8893 0.8900
802.000000 0.8907 0.8913 0.8919 0.8925 0.8931
807.000000 0.8922 0.8936 0.8935 0.8933 0.8932
812.000000 0.8930 0.8928 0.8927 0.8924 0.8921
817.000000 0.8918 0.8915 0.8912 0.8909 0.8906
822.000000 0.8903 0.8900 0.8898 0.8896 0.8895
827.000000 0.8894 0.8893 0.8891 0.8890 0.8889
832.000000 0.8888 0.8886 0.8887 0.8890 0.8893
837.000000 0.8896 0.8899 0.8905 0.8919 0.8934
842.000000 0.8949 0.8963 0.8977 0.8991 0.9004
847.000000 0.9018 0.9025 0.9030 0.9034 0.9039
852.000000 0.9044 0.9049 0.9053 0.9055 0.9053
857.000000 0.9051 0.9049 0.9047 0.9045 0.9043
862.000000 0.9042 0.9039 0.9031 0.9022 0.9013
867.000000 0.9004 0.8995 0.8973 0.8947 0.8920
872.000000 0.8892 0.8855 0.8817 0.8780 0.8743
877.000000 0.8691 0.8638 0.8585 0.8532 0.8468
882.000000 0.8366 0.8256 0.8038 0.7941 0.7920
887.000000 0.7924 0.7871 0.7846 0.7822 0.7811
892.000000 0.7831 0.7955 0.8103 0.8093 0.8077
897.000000 0.8015 0.7947 0.7933 0.7964 0.8078
902.000000 0.8191 0.8304 0.8417 0.8519 0.8605
907.000000 0.8678 0.8721 0.8752 0.8784 0.8802
912.000000 0.8818 0.8834 0.8844 0.8848 0.8851
917.000000 0.8852 0.8849 0.8814 0.8842 0.8838
922.000000 0.8835 0.8832 0.8829 0.8826 0.8814
927.000000 0.8802 0.8790 0.8774 0.8748 0.8722
932.000000 0.8694 0.8667 0.8640 0.8617 0.8597
937.000000 0.8577 0.8557 0.8548 0.8548 0.8548
942.000000 0.8548 0.8549 0.8554 0.8560 0.8565
947.000000 0.8570 0.8563 0.8552 0.8511 0.8461
952.000000 0.8454 0.8462 0.8465 0.8478 0.8500
957.000000 0.8531 0.8569 0.8605 0.8640 0.8673
962.000000 0.8700 0.8728 0.8754 0.8779 0.8791
967.000000 0.8800 0.8808 0.8816 0.8820 0.8824
972.000000 0.8808 0.8824 0.8822 0.8820 0.8817
977.000000 0.8815 0.8810 0.8804 0.8799 0.8794
982.000000 0.8789 0.8783 0.8776 0.8769 0.8762
987.000000 0.8755 0.8747 0.8739 0.8730 0.8722
992.000000 0.8717 0.8717 0.8723 0.8729 0.8735
997.000000 0.8743 0.8751 0.8759 0.8762 0.8760
1002.000000 0.8757 0.8750 0.8743 0.8736 0.8729
1007.000000 0.8722 0.8716 0.8711 0.8706 0.8700
1012.000000 0.8693 0.8686 0.8679 0.8672 0.8665
1017.000000 0.8660 0.8656 0.8653 0.8650 0.8647
1022.000000 0.8643 0.8640 0.8637 0.8639 0.8664
1027.000000 0.8643 0.8644 0.8646 0.8648 0.8654
1032.000000 0.8660 0.8666 0.8673 0.8679 0.8685
1037.000000 0.8692 0.8700 0.8708 0.8716 0.8723
1042.000000 0.8731 0.8739 0.8747 0.8755 0.8763
1047.000000 0.8772 0.8781 0.8790 0.8798 0.8807
1052.000000 0.8816 0.8825 0.8833 0.8840 0.8847
1057.000000 0.8853 0.8860 0.8866 0.8873 0.8878
1062.000000 0.8881 0.8884 0.8888 0.8891 0.8894
1067.000000 0.8898 0.8900 0.8901 0.8902 0.8903
1072.000000 0.8904 0.8905 0.8906 0.8907 0.8908
1077.000000 0.8909 0.8910 0.8910 0.8910 0.8909
1082.000000 0.8908 0.8908 0.8907 0.8906 0.8906
1087.000000 0.8914 0.8904 0.8904 0.8903 0.8902
1092.000000 0.8901 0.8900 0.8898 0.8897 0.8895
1097.000000 0.8894 0.8892 0.8891 0.8889 0.8888
1102.000000 0.8886 0.8883 0.8879 0.8874 0.8870
1107.000000 0.8866 0.8861 0.8857 0.8852 0.8848
1112.000000 0.8844 0.8837 0.8831 0.8824 0.8817
1117.000000 0.8811 0.8804 0.8793 0.8773 0.8753
1122.000000 0.8727 0.8709 0.8709 0.8709 0.8709
1127.000000 0.8708 0.8708 0.8707 0.8706 0.8705
1132.000000 0.8705 0.8707 0.8708 0.8710 0.8711
1137.000000 0.8713 0.8701 0.8716 0.8718 0.8719
1142.000000 0.8721 0.8722 0.8724 0.8727 0.8730
1147.000000 0.8733 0.8737 0.8744 0.8751 0.8758
1152.000000 0.8765 0.8772 0.8778 0.8785 0.8792
1157.000000 0.8799 0.8806 0.8813 0.8821 0.8828
1162.000000 0.8836 0.8844 0.8852 0.8859 0.8866
1167.000000 0.8872 0.8878 0.8884 0.8891 0.8897
1172.000000 0.8903 0.8909 0.8908 0.8907 0.8906
1177.000000 0.8904 0.8903 0.8902 0.8901 0.8898
1182.000000 0.8894 0.8889 0.8885 0.8881 0.8876
1187.000000 0.8866 0.8856 0.8846 0.8836 0.8826
1192.000000 0.8816 0.8806 0.8792 0.8778 0.8764
1197.000000 0.8750 0.8736 0.8721 0.8701 0.8681
1202.000000 0.8661 0.8641 0.8620 0.8600 0.8577
1207.000000 0.8552 0.8528 0.8503 0.8474 0.8431
1212.000000 0.8388 0.8345 0.8273 0.8187 0.8089
1217.000000 0.7972 0.7723 0.7480 0.7249 0.6837
1222.000000 0.6325 0.5783 0.5240 0.4697 0.4155
1227.000000 0.3612 0.3406 0.3409 0.3413 0.3826
1232.000000 0.4071 0.4297 0.4294 0.4283 0.4006
1237.000000 0.3683 0.3360 0.3192 0.3191 0.3960
1242.000000 0.4361 0.4762 0.5163 0.5564 0.5965
1247.000000 0.6366 0.6766 0.7167 0.8053 0.8239
1252.000000 0.8292 0.8345 0.8379 0.8407 0.8434
1257.000000 0.8461 0.8477 0.8488 0.8500 0.8511
1262.000000 0.8515 0.8519 0.8523 0.8525 0.8530
1267.000000 0.8518 0.8515 0.8511 0.8499 0.8484
1272.000000 0.8463 0.8433 0.8404 0.8367 0.8315
1277.000000 0.8236 0.8137 0.7902 0.7667 0.7431
1282.000000 0.7177 0.6890 0.6829 0.6807 0.6807
1287.000000 0.6846 0.6866 0.6973 0.7080 0.7258
1292.000000 0.7265 0.6762 0.6269 0.6673 0.7526
1297.000000 0.7554 0.7257 0.6974 0.6691 0.6656
1302.000000 0.6611 0.7141 0.7394 0.7605 0.7832
1307.000000 0.7948 0.8012 0.8064 0.8101 0.8138
1312.000000 0.8180 0.8226 0.8243 0.8252 0.8240
1317.000000 0.8225 0.8207 0.8186 0.8183 0.8189
1322.000000 0.8211 0.8234 0.8258 0.8282 0.8292
1327.000000 0.8302 0.8312 0.8317 0.8322 0.8327
1332.000000 0.8335 0.8343 0.8352 0.8361 0.8369
1337.000000 0.8377 0.8384 0.8391 0.8398 0.8405
1342.000000 0.8411 0.8415 0.8419 0.8422 0.8426
1347.000000 0.8430 0.8433 0.8436 0.8436 0.8437
1352.000000 0.8437 0.8438 0.8439 0.8436 0.8432
1357.000000 0.8429 0.8425 0.8421 0.8418 0.8414
1362.000000 0.8412 0.8414 0.8421 0.8429 0.8433
1367.000000 0.8429 0.8425 0.8419 0.8413 0.8406
1372.000000 0.8399 0.8393 0.8386 0.8378 0.8370
1377.000000 0.8362 0.8340 0.8315 0.8289 0.8230
1382.000000 0.8228 0.8229 0.8239 0.8264 0.8296
1387.000000 0.8351 0.8405 0.8445 0.8479 0.8491
1392.000000 0.8491 0.8491 0.8489 0.8487 0.8499
1397.000000 0.8482 0.8477 0.8473 0.8468 0.8464
1402.000000 0.8460 0.8453 0.8447 0.8440 0.8433
1407.000000 0.8425 0.8417 0.8410 0.8402 0.8394
1412.000000 0.8386 0.8373 0.8359 0.8344 0.8312
1417.000000 0.8281 0.8249 0.8217 0.8184 0.8149
1422.000000 0.8115 0.8080 0.8045 0.8003 0.7960
1427.000000 0.7917 0.7874 0.7830 0.7787 0.7743
1432.000000 0.7727 0.7711 0.7696 0.7675 0.7413
1437.000000 0.6884 0.6771 0.6778 0.7251 0.7608
1442.000000 0.7552 0.7517 0.7356 0.7332 0.7320
1447.000000 0.7311 0.7303 0.7295 0.7288 0.7274
1452.000000 0.7225 0.7000 0.6948 0.6905 0.6877
1457.000000 0.6855 0.6843 0.6851 0.7598 0.7681
1462.000000 0.7610 0.7427 0.7194 0.7057 0.7042
1467.000000 0.7124 0.7358 0.7461 0.7539 0.7610
1472.000000 0.7668 0.7725 0.7794 0.7873 0.7922
1477.000000 0.7971 0.8017 0.8059 0.8102 0.8124
1482.000000 0.8145 0.8167 0.8188 0.8209 0.8230
1487.000000 0.8254 0.8279 0.8303 0.8327 0.8340
1492.000000 0.8348 0.8356 0.8365 0.8377 0.8390
1497.000000 0.8410 0.8432 0.8444 0.8447 0.8450
1502.000000 0.8453 0.8447 0.8418 0.8382 0.8314
1507.000000 0.8270 0.8276 0.8291 0.8350 0.8429
1512.000000 0.8485 0.8499 0.8495 0.8480 0.8465
1517.000000 0.8450 0.8427 0.8401 0.8384 0.8385
1522.000000 0.8393 0.8402 0.8410 0.8419 0.8428
1527.000000 0.8437 0.8446 0.8455 0.8458 0.8461
1532.000000 0.8463 0.8459 0.8452 0.8440 0.8412
1537.000000 0.8336 0.8278 0.8264 0.8241 0.8305
1542.000000 0.8346 0.8390 0.8435 0.8470 0.8502
1547.000000 0.8518 0.8533 0.8536 0.8534 0.8533
1552.000000 0.8530 0.8526 0.8515 0.8501 0.8487
1557.000000 0.8413 0.8186 0.8210 0.8218 0.8357
1562.000000 0.8495 0.8586 0.8601 0.8609 0.8607
1567.000000 0.8603 0.8595 0.8584 0.8574 0.8563
1572.000000 0.8539 0.8516 0.8483 0.8364 0.8380
1577.000000 0.8386 0.8418 0.8508 0.8577 0.8602
1582.000000 0.8616 0.8622 0.8628 0.8635 0.8642
1587.000000 0.8647 0.8651 0.8655 0.8659 0.8661
1592.000000 0.8663 0.8665 0.8667 0.8669 0.8669
1597.000000 0.8667 0.8664 0.8661 0.8659 0.8656
1602.000000 0.8654 0.8651 0.8648 0.8645 0.8639
1607.000000 0.8633 0.8627 0.8621 0.8615 0.8609
1612.000000 0.8598 0.8586 0.8574 0.8558 0.8334
1617.000000 0.8359 0.8366 0.8409 0.8451 0.8499
1622.000000 0.8540 0.8570 0.8580 0.8589 0.8595
1627.000000 0.8597 0.8599 0.8600 0.8602 0.8587
1632.000000 0.8571 0.8555 0.8298 0.8452 0.8364
1637.000000 0.8485 0.8554 0.8571 0.8577 0.8564
1642.000000 0.8547 0.8517 0.8479 0.8406 0.8473
1647.000000 0.8523 0.8547 0.8549 0.8550 0.8263
1652.000000 0.8028 0.8020 0.8122 0.8336 0.8530
1657.000000 0.8527 0.8523 0.8514 0.8503 0.8502
1662.000000 0.8507 0.8514 0.8524 0.8523 0.8503
1667.000000 0.8476 0.8442 0.8414 0.8401 0.8395
1672.000000 0.8402 0.8416 0.8460 0.8491 0.8497
1677.000000 0.8496 0.8494 0.8420 0.8338 0.8255
1682.000000 0.8173 0.8077 0.8087 0.8156 0.8418
1687.000000 0.8489 0.8488 0.8486 0.8481 0.8472
1692.000000 0.8464 0.8432 0.8341 0.8250 0.8159
1697.000000 0.8072 0.8091 0.8239 0.8341 0.8322
1702.000000 0.8300 0.8273 0.8245 0.8220 0.8196
1707.000000 0.8171 0.8148 0.8127 0.8106 0.8085
1712.000000 0.8064 0.8044 0.8023 0.8001 0.7998
1717.000000 0.8007 0.8026 0.8092 0.8171 0.8202
1722.000000 0.8203 0.8203 0.8196 0.8181 0.8145
1727.000000 0.8108 0.8069 0.8031 0.7994 0.7974
1732.000000 0.7965 0.7965 0.8120 0.8231 0.8261
1737.000000 0.8290 0.8317 0.8340 0.8358 0.8377
1742.000000 0.8385 0.8392 0.8394 0.8388 0.8382
1747.000000 0.8377 0.8372 0.8368 0.8363 0.8363
1752.000000 0.8366 0.8369 0.8376 0.8384 0.8393
1757.000000 0.8401 0.8409 0.8417 0.8425 0.8433
1762.000000 0.8441 0.8436 0.8428 0.8420 0.8412
1767.000000 0.8406 0.8399 0.8395 0.8403 0.8430
1772.000000 0.8454 0.8474 0.8478 0.8479 0.8481
1777.000000 0.8479 0.8476 0.8473 0.8471 0.8467
1782.000000 0.8462 0.8457 0.8452 0.8446 0.8438
1787.000000 0.8429 0.8419 0.8410 0.8414 0.8428
1792.000000 0.8445 0.8461 0.8476 0.8480 0.8484
1797.000000 0.8487 0.8487 0.8487 0.8487 0.8487
1802.000000 0.8487 0.8487 0.8487 0.8487 0.8487
1807.000000 0.8487 0.8487 0.8486 0.8485 0.8484
1812.000000 0.8483 0.8482 0.8481 0.8481 0.8480
1817.000000 0.8479 0.8478 0.8477 0.8476 0.8475
1822.000000 0.8474 0.8470 0.8467 0.8464 0.8461
1827.000000 0.8459 0.8460 0.8461 0.8462 0.8463
1832.000000 0.8464 0.8465 0.8464 0.8462 0.8460
1837.000000 0.8458 0.8456 0.8454 0.8452 0.8450
1842.000000 0.8448 0.8447 0.8455 0.8462 0.8470
1847.000000 0.8477 0.8484 0.8483 0.8481 0.8480
1852.000000 0.8478 0.8477 0.8475 0.8474 0.8473
1857.000000 0.8472 0.8470 0.8469 0.8468 0.8467
1862.000000 0.8465 0.8464 0.8463 0.8462 0.8460
1867.000000 0.8457 0.8453 0.8449 0.8444 0.8440
1872.000000 0.8436 0.8433 0.8434 0.8436 0.8438
1877.000000 0.8440 0.8441 0.8443 0.8445 0.8447
1882.000000 0.8448 0.8450 0.8451 0.8453 0.8454
1887.000000 0.8456 0.8457 0.8458 0.8460 0.8462
1892.000000 0.8464 0.8466 0.8468 0.8470 0.8473
1897.000000 0.8475 0.8477 0.8477 0.8476 0.8475
1902.000000 0.8474 0.8473 0.8472 0.8471 0.8470
1907.000000 0.8469 0.8469 0.8469 0.8469 0.8469
1912.000000 0.8469 0.8469 0.8469 0.8469 0.8469
1917.000000 0.8469 0.8469 0.8469 0.8469 0.8469
1922.000000 0.8468 0.8468 0.8468 0.8468 0.8468
1927.000000 0.8468 0.8468 0.8468 0.8468 0.8468
1932.000000 0.8468 0.8468 0.8468 0.8468 0.8468
1937.000000 0.8468 0.8466 0.8463 0.8460 0.8457
1942.000000 0.8453 0.8448 0.8444 0.8440 0.8436
1947.000000 0.8431 0.8426 0.8421 0.8415 0.8410
1952.000000 0.8405 0.8399 0.8394 0.8389 0.8384
1957.000000 0.8378 0.8384 0.8393 0.8402 0.8411
1962.000000 0.8418 0.8425 0.8433 0.8435 0.8435
1967.000000 0.8435 0.8435 0.8434 0.8433 0.8431
1972.000000 0.8429 0.8427 0.8426 0.8424 0.8423
1977.000000 0.8423 0.8424 0.8424 0.8425 0.8425
1982.000000 0.8426 0.8426 0.8426 0.8426 0.8426
1987.000000 0.8426 0.8426 0.8426 0.8426 0.8426
1992.000000 0.8426 0.8425 0.8425 0.8425 0.8425
1997.000000 0.8433 0.8445 0.8452 0.8457 0.8456
2002.000000 0.8455 0.8453 0.8452 0.8450 0.8449
2007.000000 0.8446 0.8444 0.8441 0.8438 0.8435
2012.000000 0.8432 0.8429 0.8426 0.8420 0.8415
2017.000000 0.8409 0.8404 0.8398 0.8392 0.8386
2022.000000 0.8381 0.8375 0.8370 0.8365 0.8360
2027.000000 0.8355 0.8350 0.8346 0.8343 0.8345
2032.000000 0.8347 0.8348 0.8350 0.8352 0.8354
2037.000000 0.8355 0.8357 0.8361 0.8366 0.8371
2042.000000 0.8376 0.8381 0.8387 0.8392 0.8435
2047.000000 0.8404 0.8410 0.8416 0.8423 0.8429
2052.000000 0.8436 0.8440 0.8445 0.8449 0.8453
2057.000000 0.8456 0.8460 0.8464 0.8468 0.8470
2062.000000 0.8472 0.8473 0.8474 0.8475 0.8477
2067.000000 0.8478 0.8479 0.8480 0.8482 0.8483
2072.000000 0.8484 0.8485 0.8487 0.8488 0.8489
2077.000000 0.8490 0.8492 0.8492 0.8493 0.8493
2082.000000 0.8493 0.8493 0.8494 0.8494 0.8494
2087.000000 0.8494 0.8494 0.8494 0.8495 0.8495
2092.000000 0.8495 0.8495 0.8495 0.8495 0.8496
2097.000000 0.8496 0.8496 0.8496 0.8496 0.8495
2102.000000 0.8494 0.8493 0.8493 0.8492 0.8492
2107.000000 0.8491 0.8490 0.8489 0.8489 0.8488
2112.000000 0.8488 0.8487 0.8486 0.8485 0.8485
2117.000000 0.8484 0.8484 0.8483 0.8482 0.8481
2122.000000 0.8481 0.8480 0.8480 0.8480 0.8480
2127.000000 0.8480 0.8480 0.8480 0.8480 0.8480
2132.000000 0.8480 0.8480 0.8480 0.8480 0.8480
2137.000000 0.8479 0.8479 0.8479 0.8479 0.8479
2142.000000 0.8479 0.8479 0.8479 0.8479 0.8479
2147.000000 0.8479 0.8479 0.8479 0.8480 0.8480
2152.000000 0.8480 0.8480 0.8480 0.8480 0.8480
2157.000000 0.8480 0.8481 0.8481 0.8481 0.8481
2162.000000 0.8481 0.8481 0.8481 0.8481 0.8482
2167.000000 0.8482 0.8482 0.8482 0.8482 0.8482
2172.000000 0.8482 0.8481 0.8481 0.8480 0.8480
2177.000000 0.8479 0.8479 0.8478 0.8478 0.8477
2182.000000 0.8477 0.8476 0.8476 0.8475 0.8475
2187.000000 0.8474 0.8473 0.8472 0.8472 0.8471
2192.000000 0.8471 0.8470 0.8470 0.8469 0.8469
2197.000000 0.8468 0.8467 0.8466 0.8466 0.8465
2202.000000 0.8464 0.8463 0.8463 0.8462 0.8462
2207.000000 0.8461 0.8460 0.8459 0.8459 0.8457
2212.000000 0.8455 0.8452 0.8449 0.8446 0.8443
2217.000000 0.8439 0.8436 0.8433 0.8430 0.8426
2222.000000 0.8422 0.8416 0.8411 0.8413 0.8416
2227.000000 0.8419 0.8422 0.8424 0.8427 0.8430
2232.000000 0.8433 0.8435 0.8438 0.8441 0.8444
2237.000000 0.8446 0.8449 0.8452 0.8455 0.8457
2242.000000 0.8460 0.8463 0.8466 0.8469 0.8472
2247.000000 0.8475 0.8478 0.8481 0.8485 0.8488
2252.000000 0.8491 0.8494 0.8498 0.8502 0.8506
2257.000000 0.8509 0.8513 0.8516 0.8520 0.8523
2262.000000 0.8527 0.8530 0.8534 0.8537 0.8541
2267.000000 0.8544 0.8548 0.8551 0.8555 0.8558
2272.000000 0.8561 0.8564 0.8567 0.8570 0.8574
2277.000000 0.8577 0.8580 0.8583 0.8586 0.8589
2282.000000 0.8592 0.8592 0.8593 0.8593 0.8594
2287.000000 0.8594 0.8594 0.8594 0.8595 0.8595
2292.000000 0.8596 0.8596 0.8597 0.8597 0.8597
2297.000000 0.8597 0.8598 0.8598 0.8599 0.8599
2302.000000 0.8599 0.8598 0.8597 0.8596 0.8595
2307.000000 0.8594 0.8594 0.8593 0.8592 0.8591
2312.000000 0.8590 0.8589 0.8588 0.8587 0.8586
2317.000000 0.8585 0.8584 0.8583 0.8582 0.8581
2322.000000 0.8580 0.8580 0.8580 0.8580 0.8581
2327.000000 0.8582 0.8583 0.8583 0.8584 0.8585
2332.000000 0.8586 0.8586 0.8587 0.8588 0.8589
2337.000000 0.8589 0.8590 0.8592 0.8594 0.8597
2342.000000 0.8600 0.8603 0.8607 0.8608 0.8610
2347.000000 0.8610 0.8611 0.8611 0.8612 0.8612
2352.000000 0.8613 0.8613 0.8613 0.8612 0.8612
2357.000000 0.8611 0.8610 0.8609 0.8609 0.8608
2362.000000 0.8607 0.8606 0.8606 0.8605 0.8604
2367.000000 0.8603 0.8603 0.8602 0.8601 0.8601
2372.000000 0.8602 0.8602 0.8603 0.8603 0.8604
2377.000000 0.8604 0.8605 0.8605 0.8606 0.8606
2382.000000 0.8607 0.8607 0.8608 0.8608 0.8609
2387.000000 0.8612 0.8615 0.8618 0.8621 0.8624
2392.000000 0.8627 0.8630 0.8633 0.8636 0.8640
2397.000000 0.8643 0.8646 0.8647 0.8649 0.8650
2402.000000 0.8652 0.8653 0.8655 0.8656 0.8657
2407.000000 0.8658 0.8660 0.8661 0.8663 0.8664
2412.000000 0.8666 0.8665 0.8665 0.8664 0.8663
2417.000000 0.8661 0.8660 0.8659 0.8658 0.8657
2422.000000 0.8656 0.8655 0.8654 0.8653 0.8652
2427.000000 0.8651 0.8650 0.8649 0.8648 0.8646
2432.000000 0.8645 0.8643 0.8641 0.8639 0.8637
2437.000000 0.8635 0.8633 0.8631 0.8629 0.8627
2442.000000 0.8625 0.8623 0.8621 0.8619 0.8617
2447.000000 0.8615 0.8614 0.8613 0.8613 0.8612
2452.000000 0.8612 0.8611 0.8611 0.8610 0.8610
2457.000000 0.8609 0.8609 0.8608 0.8608 0.8607
2462.000000 0.8607 0.8607 0.8608 0.8609 0.8611
2467.000000 0.8612 0.8614 0.8615 0.8616 0.8617
2472.000000 0.8619 0.8620 0.8621 0.8622 0.8624
2477.000000 0.8625 0.8626 0.8627 0.8629 0.8630
2482.000000 0.8632 0.8633 0.8634 0.8635 0.8637
2487.000000 0.8637 0.8638 0.8639 0.8640 0.8641
2492.000000 0.8642 0.8642 0.8643 0.8644 0.8645
2497.000000 0.8646 0.8647 0.8647 0.8648 0.8649
2502.000000 0.8650 0.8651 0.8652 0.8652 0.8653
2507.000000 0.8654 0.8655 0.8655 0.8656 0.8657
2512.000000 0.8658 0.8658 0.8659 0.8659 0.8660
2517.000000 0.8661 0.8662 0.8662 0.8663 0.8663
2522.000000 0.8664 0.8665 0.8666 0.8666 0.8667
2527.000000 0.8667 0.8668 0.8669 0.8670 0.8670
2532.000000 0.8671 0.8671 0.8672 0.8673 0.8674
2537.000000 0.8674 0.8675 0.8676 0.8677 0.8677
2542.000000 0.8678 0.8678 0.8679 0.8679 0.8679
2547.000000 0.8679 0.8680 0.8680 0.8680 0.8680
2552.000000 0.8681 0.8681 0.8681 0.8681 0.8682
2557.000000 0.8682 0.8682 0.8682 0.8683 0.8683
2562.000000 0.8683 0.8683 0.8684 0.8684 0.8684
2567.000000 0.8684 0.8685 0.8685 0.8685 0.8685
2572.000000 0.8685 0.8684 0.8684 0.8684 0.8684
2577.000000 0.8683 0.8683 0.8683 0.8683 0.8682
2582.000000 0.8682 0.8681 0.8681 0.8681 0.8681
2587.000000 0.8680 0.8680 0.8680 0.8680 0.8679
2592.000000 0.8679 0.8679 0.8679 0.8678 0.8678
2597.000000 0.8677 0.8677 0.8677 0.8677 0.8676
2602.000000 0.8676 0.8675 0.8674 0.8673 0.8673
2607.000000 0.8672 0.8671 0.8670 0.8669 0.8668
2612.000000 0.8668 0.8667 0.8666 0.8665 0.8664
2617.000000 0.8663 0.8662 0.8661 0.8661 0.8660
2622.000000 0.8659 0.8658 0.8657 0.8656 0.8655
2627.000000 0.8653 0.8652 0.8650 0.8649 0.8647
2632.000000 0.8646 0.8644 0.8643 0.8641 0.8640
2637.000000 0.8638 0.8637 0.8635 0.8634 0.8632
2642.000000 0.8630 0.8628 0.8627 0.8625 0.8624
2647.000000 0.8621 0.8618 0.8615 0.8613 0.8610
2652.000000 0.8607 0.8604 0.8601 0.8598 0.8595
2657.000000 0.8592 0.8589 0.8586 0.8583 0.8578
2662.000000 0.8574 0.8570 0.8566 0.8562 0.8558
2667.000000 0.8554 0.8550 0.8547 0.8544 0.8543
2672.000000 0.8542 0.8540 0.8539 0.8537 0.8536
2677.000000 0.8536 0.8537 0.8541 0.8545 0.8549
2682.000000 0.8553 0.8557 0.8561 0.8570 0.8579
2687.000000 0.8586 0.8594 0.8597 0.8600 0.8603
2692.000000 0.8606 0.8607 0.8608 0.8608 0.8608
2697.000000 0.8608 0.8608 0.8607 0.8607 0.8607
2702.000000 0.8607 0.8606 0.8606 0.8605 0.8605
2707.000000 0.8604 0.8603 0.8602 0.8601 0.8600
2712.000000 0.8600 0.8599 0.8598 0.8597 0.8596
2717.000000 0.8595 0.8594 0.8593 0.8592 0.8591
2722.000000 0.8590 0.8589 0.8588 0.8587 0.8586
2727.000000 0.8585 0.8584 0.8582 0.8581 0.8578
2732.000000 0.8576 0.8573 0.8571 0.8568 0.8566
2737.000000 0.8562 0.8558 0.8553 0.8548 0.8543
2742.000000 0.8539 0.8534 0.8529 0.8524 0.8520
2747.000000 0.8519 0.8518 0.8517 0.8516 0.8515
2752.000000 0.8514 0.8513 0.8513 0.8515 0.8518
2757.000000 0.8520 0.8523 0.8526 0.8529 0.8532
2762.000000 0.8535 0.8537 0.8540 0.8545 0.8550
2767.000000 0.8557 0.8564 0.8570 0.8576 0.8581
2772.000000 0.8586 0.8590 0.8595 0.8597 0.8600
2777.000000 0.8602 0.8605 0.8608 0.8611 0.8612
2782.000000 0.8613 0.8613 0.8613 0.8611 0.8610
2787.000000 0.8608 0.8606 0.8604 0.8602 0.8600
2792.000000 0.8598 0.8596 0.8594 0.8592 0.8590
2797.000000 0.8588 0.8587 0.8585 0.8583 0.8581
2802.000000 0.8580 0.8578 0.8577 0.8575 0.8573
2807.000000 0.8571 0.8570 0.8568 0.8566 0.8564
2812.000000 0.8562 0.8559 0.8557 0.8555 0.8553
2817.000000 0.8550 0.8548 0.8545 0.8543 0.8541
2822.000000 0.8539 0.8536 0.8534 0.8531 0.8529
2827.000000 0.8527 0.8525 0.8522 0.8520 0.8517
2832.000000 0.8515 0.8512 0.8509 0.8506 0.8504
2837.000000 0.8501 0.8498 0.8495 0.8493 0.8490
2842.000000 0.8487 0.8484 0.8482 0.8479 0.8476
2847.000000 0.8467 0.8459 0.8448 0.8438 0.8427
2852.000000 0.8417 0.8407 0.8397 0.8388 0.8379
2857.000000 0.8370 0.8361 0.8354 0.8348 0.8342
2862.000000 0.8337 0.8332 0.8327 0.8322 0.8317
2867.000000 0.8312 0.8308 0.8304 0.8301 0.8297
2872.000000 0.8294 0.8290 0.8287 0.8283 0.8280
2877.000000 0.8274 0.8268 0.8238 0.8209 0.8051
2882.000000 0.7850 0.7883 0.7874 0.7905 0.7937
2887.000000 0.7969 0.8001 0.8032 0.8084 0.8054
2892.000000 0.8045 0.7936 0.7828 0.7873 0.7850
2897.000000 0.7979 0.8040 0.8101 0.8162 0.8222
2902.000000 0.8283 0.8341 0.8400 0.8453 0.8507
2907.000000 0.8522 0.8537 0.8548 0.8560 0.8568
2912.000000 0.8605 0.8580 0.8584 0.8583 0.8582
2917.000000 0.8578 0.8575 0.8569 0.8564 0.8558
2922.000000 0.8553 0.8539 0.8525 0.8505 0.8486
2927.000000 0.8463 0.8440 0.8416 0.8393 0.8369
2932.000000 0.8345 0.8317 0.8290 0.8258 0.8226
2937.000000 0.8194 0.8162 0.8131 0.8101 0.8071
2942.000000 0.8042 0.8012 0.7983 0.7953 0.7923
2947.000000 0.7872 0.7821 0.7766 0.7712 0.7579
2952.000000 0.7447 0.7278 0.7109 0.6960 0.6812
2957.000000 0.6811 0.6810 0.6882 0.6955 0.7028
2962.000000 0.7101 0.7168 0.7236 0.7234 0.7233
2967.000000 0.6893 0.6554 0.6441 0.6328 0.6215
2972.000000 0.6103 0.5990 0.5846 0.5861 0.5844
2977.000000 0.5924 0.6004 0.6084 0.6164 0.6192
2982.000000 0.6235 0.6190 0.6160 0.6099 0.6038
2987.000000 0.5977 0.5917 0.5889 0.5861 0.6006
2992.000000 0.5865 0.6509 0.6866 0.6945 0.7024
2997.000000 0.7059 0.7094 0.7108 0.7122 0.7134
3002.000000 0.7146 0.7154 0.7163 0.7172 0.7181
3007.000000 0.7189 0.7198 0.7206 0.7215 0.7231
3012.000000 0.7247 0.7319 0.7391 0.7481 0.7572
3017.000000 0.7615 0.7658 0.7688 0.7718 0.7741
3022.000000 0.7764 0.7787 0.7811 0.7834 0.7858
3027.000000 0.7877 0.7897 0.7915 0.7933 0.7951
3032.000000 0.7969 0.7987 0.8005 0.8023 0.8041
3037.000000 0.8058 0.8075 0.8092 0.8109 0.8126
3042.000000 0.8144 0.8161 0.8178 0.8193 0.8208
3047.000000 0.8221 0.8235 0.8248 0.8261 0.8274
3052.000000 0.8288 0.8301 0.8315 0.8328 0.8341
3057.000000 0.8352 0.8364 0.8375 0.8386 0.8397
3062.000000 0.8408 0.8419 0.8430 0.8438 0.8446
3067.000000 0.8453 0.8460 0.8467 0.8474 0.8481
3072.000000 0.8488 0.8493 0.8498 0.8501 0.8504
3077.000000 0.8507 0.8510 0.8512 0.8515 0.8517
3082.000000 0.8519 0.8520 0.8521 0.8522 0.8523
3087.000000 0.8523 0.8524 0.8525 0.8526 0.8525
3092.000000 0.8525 0.8524 0.8524 0.8524 0.8524
3097.000000 0.8523 0.8523 0.8522 0.8522 0.8522
3102.000000 0.8522 0.8522 0.8523 0.8523 0.8523
3107.000000 0.8523 0.8524 0.8524 0.8524 0.8524
3112.000000 0.8525 0.8525 0.8525 0.8525 0.8525
3117.000000 0.8525 0.8526 0.8526 0.8526 0.8526
3122.000000 0.8527 0.8527 0.8527 0.8527 0.8528
3127.000000 0.8528 0.8529 0.8529 0.8530 0.8531
3132.000000 0.8533 0.8534 0.8536 0.8537 0.8539
3137.000000 0.8541 0.8543 0.8544 0.8546 0.8548
3142.000000 0.8550 0.8551 0.8553 0.8555 0.8557
3147.000000 0.8558 0.8560 0.8562 0.8564 0.8567
3152.000000 0.8570 0.8572 0.8575 0.8578 0.8581
3157.000000 0.8584 0.8587 0.8590 0.8594 0.8597
3162.000000 0.8600 0.8602 0.8605 0.8607 0.8609
3167.000000 0.8611 0.8614 0.8616 0.8618 0.8620
3172.000000 0.8622 0.8624 0.8627 0.8629 0.8631
3177.000000 0.8632 0.8633 0.8633 0.8634 0.8634
3182.000000 0.8635 0.8635 0.8636 0.8636 0.8637
3187.000000 0.8637 0.8638 0.8638 0.8639 0.8639
3192.000000 0.8640 0.8639 0.8639 0.8638 0.8638
3197.000000 0.8637 0.8637 0.8636 0.8636 0.8635
3202.000000 0.8635 0.8634 0.8634 0.8633 0.8633
3207.000000 0.8632 0.8632 0.8631 0.8631 0.8630
3212.000000 0.8630 0.8629 0.8629 0.8628 0.8628
3217.000000 0.8627 0.8627 0.8626 0.8625 0.8624
3222.000000 0.8623 0.8622 0.8621 0.8619 0.8618
3227.000000 0.8617 0.8616 0.8615 0.8614 0.8613
3232.000000 0.8612 0.8611 0.8610 0.8609 0.8608
3237.000000 0.8607 0.8606 0.8605 0.8604 0.8603
3242.000000 0.8602 0.8601 0.8601 0.8600 0.8600
3247.000000 0.8599 0.8599 0.8598 0.8597 0.8596
3252.000000 0.8596 0.8595 0.8595 0.8594 0.8593
3257.000000 0.8592 0.8592 0.8591 0.8591 0.8590
3262.000000 0.8590 0.8589 0.8588 0.8587 0.8587
3267.000000 0.8587 0.8587 0.8586 0.8586 0.8586
3272.000000 0.8586 0.8586 0.8586 0.8585 0.8585
3277.000000 0.8585 0.8585 0.8585 0.8585 0.8584
3282.000000 0.8584 0.8584 0.8584 0.8583 0.8583
3287.000000 0.8583 0.8583 0.8583 0.8583 0.8583
3292.000000 0.8584 0.8584 0.8584 0.8584 0.8585
3297.000000 0.8585 0.8586 0.8586 0.8586 0.8586
3302.000000 0.8587 0.8587 0.8588 0.8588 0.8589
3307.000000 0.8589 0.8589 0.8589 0.8589 0.8588
3312.000000 0.8587 0.8586 0.8586 0.8585 0.8584
3317.000000 0.8583 0.8582 0.8581 0.8580 0.8579
3322.000000 0.8578 0.8577 0.8576 0.8575 0.8575
3327.000000 0.8574 0.8573 0.8572 0.8571 0.8570
3332.000000 0.8569 0.8567 0.8566 0.8565 0.8564
3337.000000 0.8563 0.8562 0.8561 0.8560 0.8559
3342.000000 0.8558 0.8557 0.8556 0.8555 0.8554
3347.000000 0.8553 0.8552 0.8551 0.8550 0.8549
3352.000000 0.8548 0.8547 0.8546 0.8544 0.8543
3357.000000 0.8542 0.8541 0.8540 0.8539 0.8537
3362.000000 0.8536 0.8535 0.8534 0.8533 0.8532
3367.000000 0.8530 0.8529 0.8528 0.8527 0.8526
3372.000000 0.8525 0.8523 0.8522 0.8521 0.8520
3377.000000 0.8519 0.8518 0.8517 0.8517 0.8516
3382.000000 0.8516 0.8516 0.8516 0.8515 0.8515
3387.000000 0.8514 0.8514 0.8514 0.8514 0.8513
3392.000000 0.8513 0.8512 0.8512 0.8512 0.8512
3397.000000 0.8511 0.8511 0.8510 0.8510 0.8510
3402.000000 0.8510 0.8510 0.8510 0.8510 0.8511
3407.000000 0.8511 0.8512 0.8512 0.8513 0.8513
3412.000000 0.8514 0.8514 0.8515 0.8515 0.8516
3417.000000 0.8516 0.8517 0.8517 0.8518 0.8518
3422.000000 0.8519 0.8519 0.8520 0.8522 0.8524
3427.000000 0.8527 0.8530 0.8533 0.8536 0.8539
3432.000000 0.8542 0.8544 0.8547 0.8550 0.8553
3437.000000 0.8556 0.8559 0.8561 0.8564 0.8567
3442.000000 0.8570 0.8573 0.8576 0.8577 0.8578
3447.000000 0.8578 0.8578 0.8578 0.8578 0.8578
3452.000000 0.8578 0.8578 0.8578 0.8578 0.8578
3457.000000 0.8578 0.8578 0.8578 0.8578 0.8578
3462.000000 0.8578 0.8578 0.8578 0.8578 0.8578
3467.000000 0.8578 0.8579 0.8579 0.8579 0.8579
3472.000000 0.8579 0.8579 0.8580 0.8580 0.8580
3477.000000 0.8580 0.8580 0.8580 0.8581 0.8581
3482.000000 0.8581 0.8581 0.8582 0.8582 0.8582
3487.000000 0.8582 0.8583 0.8583 0.8583 0.8583
3492.000000 0.8584 0.8584 0.8585 0.8585 0.8585
3497.000000 0.8585 0.8586 0.8586 0.8587 0.8587
3502.000000 0.8587 0.8587 0.8588 0.8588 0.8588
3507.000000 0.8588 0.8589 0.8589 0.8589 0.8589
3512.000000 0.8589 0.8589 0.8590 0.8590 0.8590
3517.000000 0.8590 0.8590 0.8590 0.8591 0.8591
3522.000000 0.8591 0.8591 0.8591 0.8591 0.8591
3527.000000 0.8591 0.8591 0.8590 0.8590 0.8590
3532.000000 0.8590 0.8589 0.8615 0.8589 0.8589
3537.000000 0.8588 0.8588 0.8588 0.8588 0.8587
3542.000000 0.8587 0.8586 0.8586 0.8584 0.8583
3547.000000 0.8581 0.8579 0.8577 0.8576 0.8574
3552.000000 0.8572 0.8570 0.8569 0.8567 0.8565
3557.000000 0.8562 0.8559 0.8556 0.8553 0.8551
3562.000000 0.8549 0.8556 0.8564 0.8571 0.8579
3567.000000 0.8586 0.8594 0.8593 0.8592 0.8590
3572.000000 0.8589 0.8586 0.8584 0.8581 0.8579
3577.000000 0.8574 0.8570 0.8564 0.8559 0.8554
3582.000000 0.8549 0.8543 0.8538 0.8535 0.8533
3587.000000 0.8530 0.8528 0.8525 0.8523 0.8520
3592.000000 0.8517 0.8515 0.8514 0.8513 0.8512
3597.000000 0.8510 0.8509 0.8508 0.8507 0.8505
3602.000000 0.8504 0.8503 0.8502 0.8501 0.8500
3607.000000 0.8500 0.8500 0.8500 0.8500 0.8499
3612.000000 0.8499 0.8499 0.8499 0.8499 0.8499
3617.000000 0.8499 0.8499 0.8498 0.8498 0.8497
3622.000000 0.8496 0.8494 0.8493 0.8492 0.8492
3627.000000 0.8495 0.8498 0.8501 0.8504 0.8507
3632.000000 0.8510 0.8506 0.8502 0.8498 0.8494
3637.000000 0.8489 0.8485 0.8479 0.8474 0.8465
3642.000000 0.8456 0.8448 0.8441 0.8449 0.8457
3647.000000 0.8464 0.8472 0.8477 0.8483 0.8488
3652.000000 0.8493 0.8498 0.8503 0.8501 0.8500
3657.000000 0.8496 0.8492 0.8489 0.8486 0.8478
3662.000000 0.8470 0.8452 0.8434 0.8421 0.8409
3667.000000 0.8405 0.8402 0.8400 0.8398 0.8404
3672.000000 0.8410 0.8416 0.8422 0.8429 0.8436
3677.000000 0.8443 0.8450 0.8457 0.8464 0.8469
3682.000000 0.8475 0.8476 0.8478 0.8480 0.8482
3687.000000 0.8483 0.8485 0.8483 0.8482 0.8480
3692.000000 0.8478 0.8476 0.8475 0.8473 0.8471
3697.000000 0.8469 0.8468 0.8466 0.8465 0.8463
3702.000000 0.8462 0.8462 0.8462 0.8462 0.8462
3707.000000 0.8462 0.8462 0.8462 0.8462 0.8462
3712.000000 0.8463 0.8463 0.8464 0.8464 0.8465
3717.000000 0.8463 0.8461 0.8459 0.8457 0.8455
3722.000000 0.8454 0.8452 0.8450 0.8445 0.8441
3727.000000 0.8436 0.8432 0.8427 0.8423 0.8424
3732.000000 0.8425 0.8432 0.8439 0.8447 0.8455
3737.000000 0.8445 0.8436 0.8415 0.8395 0.8369
3742.000000 0.8343 0.8318 0.8294 0.8297 0.8300
3747.000000 0.8320 0.8341 0.8360 0.8380 0.8392
3752.000000 0.8405 0.8410 0.8415 0.8417 0.8420
3757.000000 0.8416 0.8412 0.8408 0.8405 0.8401
3762.000000 0.8397 0.8393 0.8389 0.8385 0.8382
##END=
