##TITLE=heptane-2,3
##JCAMP-DX=4.24
##DATA TYPE=INFRARED SPECTRUM
##CLASS=COBLENTZ
##ORIGIN=DOW CHEMICAL COMPANY
##OWNER=COBLENTZ SOCIETY
Collection (C) 2009 copyright by the U.S. Secretary of Commerce
on behalf of the United States of America. All rights reserved.
##DATE=1979/03/30
##CAS REGISTRY NO=565-59-3
##MOLFORM=C7 H16
##SOURCE REFERENCE=COBLENTZ NO. 10508
##$NIST SOURCE=COBLENTZ
##$NIST IMAGE=cob-r10508
##SPECTROMETER/DATA SYSTEM=BECKMAN IR-9 (GRATING)
##INSTRUMENT PARAMETERS=ORDER CHANGES: 670, 1200, 2000 CM^-^1
$$ ABSORPTIONS DUE TO UNKNOWNS AT 1740 AND 1187 CM^-^1.
##STATE=GAS (17 mmHg, N2 ADDED, TOTAL PRESSURE 600 mmHg)
##PATH LENGTH=10 CM
##SAMPLING PROCEDURE=TRANSMISSION
##RESOLUTION=2
##DATA PROCESSING=DIGITIZED BY NIST FROM HARD COPY (FROM TWO SEGMENTS)
##XUNITS=1/CM
##YUNITS=TRANSMITTANCE
##XFACTOR=1.000000
##YFACTOR=1
##DELTAX=1.410111
##FIRSTX=200.705
##LASTX=3988.26
##FIRSTY=0.001
##MAXX=3988.26
##MINX=200.705
##MAXY=0.953
##MINY=0
##NPOINTS=2687
##XYDATA=(X++(Y..Y))
200.705000 0.0010 0.0010 0.0000 0.0000 0.0000
207.755554 0.0000 0.0000 0.0000 0.0000 0.0000
214.806107 0.0000 0.0000 0.0000 0.0000 0.0000
221.856661 0.0000 0.0000 0.0000 0.0000 0.0000
228.907214 0.0000 0.0000 0.0000 0.0000 0.0000
235.957768 0.0000 0.0000 0.0000 0.0000 0.0000
243.008321 0.0000 0.0000 0.0000 0.0010 0.0010
250.058875 0.0010 0.0030 0.0030 0.0050 0.0050
257.109429 0.0050 0.0050 0.0070 0.0090 0.0090
264.159982 0.0090 0.0090 0.0090 0.0090 0.0090
271.210536 0.0090 0.0090 0.0090 0.0090 0.0090
278.261089 0.0110 0.0110 0.0130 0.0130 0.0150
285.311643 0.0150 0.0160 0.0160 0.0150 0.0130
292.362196 0.0050 0.0010 0.0010 0.0010 0.0030
299.412750 0.0030 0.0050 0.0070 0.0070 0.0090
306.463304 0.0110 0.0110 0.0130 0.0150 0.0160
313.513857 0.0180 0.0200 0.0220 0.0240 0.0260
320.564411 0.0280 0.0300 0.0310 0.0330 0.0350
327.614964 0.0370 0.0410 0.0430 0.0480 0.0500
334.665518 0.0520 0.0540 0.0580 0.0610 0.0689
341.716071 0.0780 0.0800 0.0900 0.0930 0.0990
348.766625 0.1010 0.1119 0.1249 0.1349 0.1439
355.817178 0.1510 0.1590 0.1680 0.1780 0.1870
362.867732 0.1980 0.2080 0.2170 0.2279 0.2399
369.918286 0.2490 0.2600 0.2700 0.2810 0.2920
376.968839 0.3020 0.3110 0.3200 0.3299 0.3389
384.019393 0.3480 0.3540 0.3670 0.3770 0.3860
391.069946 0.3950 0.4069 0.4160 0.4240 0.4329
398.120500 0.4400 0.4460 0.4650 0.4780 0.4890
405.171053 0.4950 0.5000 0.5020 0.5139 0.5229
412.221607 0.5380 0.5470 0.5550 0.5680 0.5770
419.272161 0.5870 0.5960 0.6040 0.6169 0.6259
426.322714 0.6340 0.6390 0.6450 0.6510 0.6600
433.373268 0.6690 0.6770 0.6840 0.6900 0.6989
440.423821 0.7010 0.7050 0.7140 0.7220 0.7310
447.474375 0.7370 0.7410 0.7440 0.7480 0.7559
454.524928 0.7590 0.7610 0.7650 0.7710 0.7740
461.575482 0.7800 0.7840 0.7860 0.7870 0.7890
468.626036 0.7970 0.8010 0.8030 0.8040 0.8100
475.676589 0.8140 0.8180 0.8190 0.8210 0.8230
482.727143 0.8250 0.8290 0.8330 0.8340 0.8360
489.777696 0.8380 0.8420 0.8440 0.8460 0.8460
496.828250 0.8480 0.8490 0.8510 0.8590 0.8660
503.878803 0.8700 0.8640 0.8481 0.8480 0.8510
510.929357 0.8510 0.8530 0.8590 0.8610 0.8640
517.979911 0.8680 0.8720 0.8740 0.8780 0.8810
525.030464 0.8830 0.8850 0.8850 0.8830 0.8810
532.081018 0.8810 0.8790 0.8790 0.8780 0.8760
539.131571 0.8740 0.8700 0.8660 0.8640 0.8630
546.182125 0.8610 0.8610 0.8610 0.8610 0.8610
553.232678 0.8630 0.8640 0.8640 0.8640 0.8660
560.283232 0.8680 0.8700 0.8720 0.8720 0.8740
567.333785 0.8760 0.8760 0.8760 0.8780 0.8780
574.384339 0.8760 0.8760 0.8760 0.8760 0.8760
581.434893 0.8760 0.8760 0.8760 0.8760 0.8760
588.485446 0.8780 0.8790 0.8790 0.8810 0.8810
595.536000 0.8810 0.8810 0.8830 0.8810 0.8810
602.586553 0.8810 0.8790 0.8780 0.8780 0.8760
609.637107 0.8760 0.8740 0.8740 0.8720 0.8700
616.687660 0.8660 0.8660 0.8660 0.8640 0.8640
623.738214 0.8640 0.8660 0.8660 0.8660 0.8660
630.788768 0.8680 0.8700 0.8700 0.8720 0.8720
637.839321 0.8740 0.8740 0.8780 0.8790 0.8810
644.889875 0.8830 0.8830 0.8830 0.8810 0.8790
651.940428 0.8790 0.8780 0.8790 0.8930 0.9080
658.990982 0.9090 0.9080 0.9080 0.9080 0.9060
666.041535 0.9060 0.9060 0.9090 0.9150 0.9190
673.092089 0.9170 0.9150 0.9130 0.9150 0.9170
680.142643 0.9190 0.9210 0.9230 0.9230 0.9230
687.193196 0.9230 0.9240 0.9240 0.9260 0.9260
694.243750 0.9260 0.9260 0.9280 0.9280 0.9320
701.294303 0.9320 0.9300 0.9300 0.9300 0.9280
708.344857 0.9280 0.9240 0.9230 0.9210 0.9210
715.395410 0.9210 0.9230 0.9230 0.9240 0.9240
722.445964 0.9260 0.9260 0.9260 0.9280 0.9280
729.496518 0.9280 0.9280 0.9260 0.9260 0.9260
736.547071 0.9260 0.9260 0.9260 0.9240 0.9240
743.597625 0.9230 0.9230 0.9210 0.9210 0.9190
750.648178 0.9150 0.9130 0.9130 0.9110 0.9110
757.698732 0.9130 0.9150 0.9150 0.9150 0.9170
764.749285 0.9170 0.9170 0.9190 0.9210 0.9230
771.799839 0.9230 0.9230 0.9210 0.9210 0.9210
778.850392 0.9190 0.9150 0.9150 0.9130 0.9130
785.900946 0.9090 0.9090 0.9080 0.9060 0.9040
792.951500 0.9040 0.9020 0.9020 0.9020 0.9040
800.002053 0.9080 0.9080 0.9110 0.9110 0.9130
807.052607 0.9150 0.9170 0.9190 0.9190 0.9210
814.103160 0.9230 0.9240 0.9260 0.9280 0.9300
821.153714 0.9320 0.9320 0.9340 0.9360 0.9380
828.204267 0.9390 0.9390 0.9390 0.9380 0.9380
835.254821 0.9380 0.9380 0.9380 0.9380 0.9360
842.305375 0.9360 0.9360 0.9360 0.9340 0.9340
849.355928 0.9340 0.9320 0.9320 0.9300 0.9280
856.406482 0.9280 0.9280 0.9260 0.9240 0.9240
863.457035 0.9230 0.9210 0.9190 0.9170 0.9150
870.507589 0.9130 0.9080 0.9060 0.9020 0.8980
877.558142 0.8910 0.8830 0.8760 0.8660 0.8510
884.608696 0.8251 0.8120 0.8080 0.8120 0.8458
891.659250 0.8460 0.8210 0.8180 0.8190 0.8310
898.709803 0.8440 0.8639 0.8789 0.8870 0.8999
905.760357 0.9060 0.9090 0.9110 0.9130 0.9130
912.810910 0.9110 0.9110 0.9060 0.9040 0.9020
919.861464 0.9020 0.9000 0.9000 0.9000 0.9000
926.912017 0.9000 0.9000 0.9020 0.9040 0.9060
933.962571 0.9060 0.9110 0.9130 0.9150 0.9210
941.013125 0.9240 0.9260 0.9260 0.9260 0.9240
948.063678 0.9240 0.9230 0.9230 0.9190 0.9190
955.114232 0.9150 0.9130 0.9090 0.9040 0.9000
962.164785 0.8960 0.8890 0.8850 0.8810 0.8760
969.215339 0.8720 0.8680 0.8660 0.8660 0.8660
976.265892 0.8680 0.8680 0.8700 0.8740 0.8760
983.316446 0.8790 0.8790 0.8810 0.8810 0.8790
990.366999 0.8790 0.8740 0.8720 0.8660 0.8640
997.417553 0.8610 0.8590 0.8550 0.8530 0.8510
1004.468107 0.8510 0.8490 0.8490 0.8460 0.8440
1011.518660 0.8420 0.8420 0.8400 0.8400 0.8400
1018.569214 0.8380 0.8360 0.8360 0.8340 0.8340
1025.619767 0.8340 0.8360 0.8360 0.8400 0.8420
1032.670321 0.8490 0.8530 0.8570 0.8660 0.8680
1039.720874 0.8700 0.8760 0.8810 0.8850 0.8910
1046.771428 0.8940 0.8960 0.9000 0.9020 0.9000
1053.821982 0.8980 0.8940 0.8870 0.8790 0.8790
1060.872535 0.8870 0.8910 0.8910 0.8890 0.8870
1067.923089 0.8870 0.8870 0.8850 0.8850 0.8830
1074.973642 0.8830 0.8830 0.8830 0.8830 0.8830
1082.024196 0.8810 0.8780 0.8780 0.8780 0.8790
1089.074749 0.8830 0.8910 0.8930 0.8960 0.9000
1096.125303 0.9020 0.9040 0.9040 0.9020 0.9020
1103.175857 0.9020 0.9000 0.9000 0.8940 0.8910
1110.226410 0.8870 0.8830 0.8720 0.8630 0.8491
1117.276964 0.8330 0.8160 0.7970 0.7780 0.7540
1124.327517 0.7390 0.7220 0.7070 0.6921 0.6771
1131.378071 0.6670 0.6580 0.6520 0.6510 0.6520
1138.428624 0.6560 0.6670 0.6750 0.6840 0.6860
1145.479178 0.6960 0.6990 0.7070 0.7180 0.7240
1152.529732 0.7350 0.7460 0.7590 0.7719 0.7869
1159.580285 0.8030 0.8160 0.8290 0.8400 0.8480
1166.630839 0.8510 0.8530 0.8530 0.8550 0.8570
1173.681392 0.8610 0.8640 0.8680 0.8720 0.8760
1180.731946 0.8780 0.8760 0.8591 0.8490 0.8490
1187.782499 0.8511 0.8740 0.8850 0.8930 0.8940
1194.833053 0.8980 0.8980 0.9000 0.9020 0.9040
1201.883606 0.9040 0.9040 0.9060 0.9060 0.9080
1208.934160 0.9110 0.9110 0.9150 0.9170 0.9170
1215.984714 0.9170 0.9170 0.9170 0.9170 0.9170
1223.035267 0.9150 0.9150 0.9150 0.9150 0.9150
1230.085821 0.9130 0.9130 0.9130 0.9130 0.9110
1237.136374 0.9090 0.9060 0.9060 0.9040 0.9020
1244.186928 0.8930 0.8850 0.8790 0.8760 0.8700
1251.237481 0.8630 0.8610 0.8610 0.8550 0.8550
1258.288035 0.8530 0.8530 0.8510 0.8490 0.8490
1265.338589 0.8510 0.8530 0.8550 0.8550 0.8610
1272.389142 0.8630 0.8700 0.8740 0.8780 0.8810
1279.439696 0.8830 0.8850 0.8850 0.8850 0.8830
1286.490249 0.8830 0.8810 0.8780 0.8740 0.8740
1293.540803 0.8760 0.8780 0.8780 0.8780 0.8780
1300.591356 0.8760 0.8740 0.8720 0.8700 0.8660
1307.641910 0.8660 0.8630 0.8630 0.8610 0.8590
1314.692464 0.8570 0.8570 0.8570 0.8570 0.8590
1321.743017 0.8610 0.8630 0.8640 0.8680 0.8720
1328.793571 0.8760 0.8790 0.8790 0.8780 0.8780
1335.844124 0.8780 0.8760 0.8740 0.8740 0.8740
1342.894678 0.8760 0.8760 0.8760 0.8740 0.8680
1349.945231 0.8630 0.8570 0.8550 0.8480 0.8400
1356.995785 0.8310 0.8160 0.8010 0.7860 0.7690
1364.046339 0.7520 0.7310 0.7071 0.6811 0.6471
1371.096892 0.6068 0.5490 0.5400 0.5230 0.5060
1378.147446 0.4890 0.4720 0.4461 0.4350 0.4240
1385.197999 0.3971 0.4240 0.4330 0.4370 0.4390
1392.248553 0.4400 0.4460 0.4699 0.5507 0.6038
1399.299106 0.6171 0.6511 0.6860 0.7200 0.7560
1406.349660 0.7860 0.8120 0.8339 0.8480 0.8510
1413.400213 0.8630 0.8660 0.8680 0.8680 0.8700
1420.450767 0.8700 0.8720 0.8740 0.8740 0.8740
1427.501321 0.8720 0.8700 0.8660 0.8610 0.8550
1434.551874 0.8480 0.8380 0.8290 0.8190 0.8080
1441.602428 0.7950 0.7800 0.7630 0.7440 0.7260
1448.652981 0.7030 0.6790 0.6521 0.6241 0.5921
1455.703535 0.5489 0.5149 0.4870 0.4670 0.4500
1462.754088 0.4330 0.4180 0.4010 0.3801 0.3780
1469.804642 0.3780 0.3800 0.3840 0.3930 0.4030
1476.855196 0.4200 0.4420 0.4699 0.5019 0.5339
1483.905749 0.5641 0.5871 0.6261 0.6640 0.6970
1490.956303 0.7290 0.7590 0.7859 0.8099 0.8309
1498.006856 0.8481 0.8630 0.8720 0.8760 0.8760
1505.057410 0.8780 0.8790 0.8810 0.8810 0.8890
1512.107963 0.8940 0.8960 0.8980 0.8980 0.8960
1519.158517 0.8940 0.8940 0.8930 0.8930 0.8940
1526.209071 0.8960 0.8980 0.8980 0.8980 0.8980
1533.259624 0.9000 0.9020 0.9020 0.9020 0.9020
1540.310178 0.9000 0.8960 0.8930 0.8930 0.8940
1547.360731 0.9000 0.9040 0.9080 0.9090 0.9110
1554.411285 0.9110 0.9110 0.9090 0.9020 0.8980
1561.461838 0.8980 0.9000 0.9080 0.9110 0.9110
1568.512392 0.9130 0.9150 0.9150 0.9170 0.9170
1575.562946 0.9130 0.9090 0.9060 0.9040 0.9060
1582.613499 0.9110 0.9150 0.9190 0.9210 0.9210
1589.664053 0.9190 0.9190 0.9210 0.9230 0.9230
1596.714606 0.9210 0.9210 0.9210 0.9210 0.9210
1603.765160 0.9210 0.9190 0.9190 0.9190 0.9190
1610.815713 0.9170 0.9170 0.9150 0.9150 0.9130
1617.866267 0.9110 0.9110 0.9090 0.9090 0.9090
1624.916820 0.9090 0.9090 0.9090 0.9110 0.9150
1631.967374 0.9170 0.9170 0.9150 0.9110 0.9110
1639.017928 0.9130 0.9130 0.9130 0.9130 0.9130
1646.068481 0.9130 0.9130 0.9090 0.9060 0.9060
1653.119035 0.9040 0.9040 0.9040 0.9080 0.9080
1660.169588 0.9110 0.9110 0.9110 0.9110 0.9110
1667.220142 0.9110 0.9110 0.9090 0.9080 0.9080
1674.270695 0.9080 0.9080 0.9080 0.9080 0.9090
1681.321249 0.9090 0.9090 0.9080 0.9060 0.9040
1688.371803 0.9040 0.9080 0.9080 0.9090 0.9110
1695.422356 0.9130 0.9130 0.9110 0.9020 0.9000
1702.472910 0.9000 0.9000 0.9000 0.9020 0.9020
1709.523463 0.9040 0.9080 0.9090 0.9110 0.9110
1716.574017 0.9090 0.9040 0.8980 0.8960 0.8940
1723.624570 0.8940 0.8930 0.8930 0.8910 0.8910
1730.675124 0.8870 0.8850 0.8810 0.8760 0.8680
1737.725678 0.8640 0.8630 0.8630 0.8640 0.8640
1744.776231 0.8660 0.8680 0.8720 0.8740 0.8790
1751.826785 0.8830 0.8850 0.8870 0.8890 0.8980
1758.877338 0.9000 0.9020 0.9040 0.9040 0.9060
1765.927892 0.9090 0.9130 0.9150 0.9150 0.9130
1772.978445 0.9130 0.9130 0.9110 0.9110 0.9110
1780.028999 0.9110 0.9110 0.9110 0.9110 0.9130
1787.079553 0.9150 0.9170 0.9170 0.9210 0.9210
1794.130106 0.9210 0.9210 0.9190 0.9170 0.9170
1801.180660 0.9150 0.9150 0.9150 0.9150 0.9150
1808.231213 0.9150 0.9150 0.9170 0.9170 0.9190
1815.281767 0.9190 0.9210 0.9230 0.9240 0.9280
1822.332320 0.9280 0.9260 0.9260 0.9240 0.9230
1829.382874 0.9210 0.9210 0.9210 0.9230 0.9240
1836.433427 0.9260 0.9280 0.9280 0.9300 0.9300
1843.483981 0.9280 0.9240 0.9210 0.9210 0.9230
1850.534535 0.9280 0.9300 0.9300 0.9300 0.9300
1857.585088 0.9300 0.9300 0.9300 0.9280 0.9280
1864.635642 0.9260 0.9240 0.9240 0.9240 0.9240
1871.686195 0.9240 0.9240 0.9240 0.9260 0.9280
1878.736749 0.9260 0.9260 0.9240 0.9240 0.9240
1885.787302 0.9240 0.9240 0.9230 0.9230 0.9240
1892.837856 0.9240 0.9240 0.9240 0.9260 0.9260
1899.888410 0.9260 0.9260 0.9260 0.9240 0.9260
1906.938963 0.9260 0.9260 0.9260 0.9260 0.9260
1913.989517 0.9260 0.9260 0.9260 0.9260 0.9280
1921.040070 0.9300 0.9300 0.9300 0.9300 0.9300
1928.090624 0.9300 0.9320 0.9320 0.9320 0.9320
1935.141177 0.9320 0.9320 0.9320 0.9320 0.9320
1942.191731 0.9320 0.9320 0.9320 0.9300 0.9300
1949.242285 0.9300 0.9300 0.9300 0.9300 0.9300
1956.292838 0.9280 0.9280 0.9260 0.9260 0.9260
1963.343392 0.9260 0.9240 0.9240 0.9240 0.9240
1970.393945 0.9240 0.9240 0.9230 0.9230 0.9210
1977.444499 0.9210 0.9210 0.9210 0.9210 0.9210
1984.495052 0.9190 0.9190 0.9190 0.9170 0.9170
1991.545606 0.9130 0.9130 0.9110 0.9110 0.9130
1998.596160 0.9150 0.9170 0.9180 0.9190 0.9200
2005.646713 0.9210 0.9221 0.9230 0.9235 0.9241
2012.697267 0.9251 0.9260 0.9260 0.9262 0.9283
2019.747820 0.9301 0.9311 0.9320 0.9320 0.9320
2026.798374 0.9320 0.9320 0.9320 0.9320 0.9320
2033.848927 0.9320 0.9320 0.9317 0.9307 0.9300
2040.899481 0.9300 0.9300 0.9300 0.9300 0.9300
2047.950034 0.9296 0.9286 0.9280 0.9280 0.9280
2055.000588 0.9280 0.9280 0.9280 0.9280 0.9280
2062.051142 0.9280 0.9280 0.9280 0.9280 0.9280
2069.101695 0.9280 0.9280 0.9280 0.9274 0.9264
2076.152249 0.9254 0.9244 0.9240 0.9240 0.9240
2083.202802 0.9240 0.9240 0.9240 0.9240 0.9240
2090.253356 0.9240 0.9240 0.9240 0.9240 0.9240
2097.303909 0.9240 0.9240 0.9240 0.9240 0.9240
2104.354463 0.9240 0.9240 0.9240 0.9240 0.9240
2111.405017 0.9240 0.9240 0.9240 0.9240 0.9240
2118.455570 0.9240 0.9240 0.9240 0.9240 0.9240
2125.506124 0.9240 0.9240 0.9240 0.9240 0.9240
2132.556677 0.9240 0.9240 0.9240 0.9240 0.9240
2139.607231 0.9240 0.9240 0.9240 0.9240 0.9240
2146.657784 0.9240 0.9240 0.9240 0.9240 0.9240
2153.708338 0.9240 0.9240 0.9240 0.9240 0.9240
2160.758892 0.9240 0.9240 0.9240 0.9240 0.9240
2167.809445 0.9240 0.9240 0.9240 0.9240 0.9244
2174.859999 0.9254 0.9260 0.9260 0.9264 0.9274
2181.910552 0.9280 0.9280 0.9284 0.9294 0.9300
2188.961106 0.9300 0.9300 0.9300 0.9300 0.9300
2196.011659 0.9300 0.9300 0.9300 0.9300 0.9300
2203.062213 0.9300 0.9294 0.9284 0.9280 0.9280
2210.112767 0.9274 0.9264 0.9260 0.9260 0.9260
2217.163320 0.9260 0.9260 0.9260 0.9260 0.9260
2224.213874 0.9252 0.9242 0.9240 0.9240 0.9240
2231.264427 0.9240 0.9240 0.9240 0.9240 0.9240
2238.314981 0.9240 0.9240 0.9240 0.9240 0.9240
2245.365534 0.9240 0.9240 0.9240 0.9240 0.9240
2252.416088 0.9240 0.9240 0.9250 0.9260 0.9250
2259.466641 0.9240 0.9240 0.9240 0.9235 0.9229
2266.517195 0.9219 0.9210 0.9210 0.9210 0.9210
2273.567749 0.9210 0.9210 0.9210 0.9210 0.9212
2280.618302 0.9222 0.9231 0.9236 0.9240 0.9240
2287.668856 0.9243 0.9253 0.9260 0.9260 0.9263
2294.719409 0.9273 0.9283 0.9293 0.9307 0.9327
2301.769963 0.9343 0.9354 0.9364 0.9374 0.9386
2308.820516 0.9401 0.9414 0.9424 0.9439 0.9459
2315.871070 0.9479 0.9500 0.9515 0.9525 0.9530
2322.921624 0.9530 0.9530 0.9530 0.9525 0.9514
2329.972177 0.9510 0.9510 0.9510 0.9510 0.9504
2337.022731 0.9494 0.9490 0.9490 0.9477 0.9456
2344.073284 0.9450 0.9450 0.9443 0.9433 0.9430
2351.123838 0.9430 0.9423 0.9412 0.9410 0.9410
2358.174391 0.9402 0.9392 0.9386 0.9381 0.9371
2365.224945 0.9361 0.9351 0.9341 0.9322 0.9302
2372.275499 0.9282 0.9262 0.9246 0.9231 0.9211
2379.326052 0.9191 0.9180 0.9170 0.9160 0.9150
2386.376606 0.9150 0.9150 0.9150 0.9149 0.9139
2393.427159 0.9130 0.9130 0.9130 0.9130 0.9130
2400.477713 0.9130 0.9130 0.9130 0.9130 0.9130
2407.528266 0.9130 0.9130 0.9130 0.9130 0.9130
2414.578820 0.9130 0.9132 0.9143 0.9150 0.9150
2421.629374 0.9153 0.9163 0.9170 0.9170 0.9170
2428.679927 0.9170 0.9174 0.9184 0.9190 0.9190
2435.730481 0.9190 0.9190 0.9194 0.9204 0.9210
2442.781034 0.9210 0.9210 0.9210 0.9210 0.9210
2449.831588 0.9210 0.9210 0.9210 0.9210 0.9210
2456.882141 0.9210 0.9210 0.9210 0.9210 0.9210
2463.932695 0.9210 0.9210 0.9210 0.9210 0.9210
2470.983248 0.9210 0.9210 0.9210 0.9210 0.9210
2478.033802 0.9210 0.9210 0.9210 0.9210 0.9210
2485.084356 0.9210 0.9210 0.9210 0.9202 0.9192
2492.134909 0.9190 0.9190 0.9190 0.9190 0.9190
2499.185463 0.9190 0.9190 0.9190 0.9190 0.9190
2506.236016 0.9190 0.9190 0.9200 0.9210 0.9210
2513.286570 0.9210 0.9220 0.9230 0.9230 0.9230
2520.337123 0.9230 0.9230 0.9230 0.9230 0.9230
2527.387677 0.9230 0.9230 0.9230 0.9230 0.9230
2534.438231 0.9230 0.9230 0.9230 0.9230 0.9230
2541.488784 0.9228 0.9218 0.9210 0.9210 0.9207
2548.539338 0.9197 0.9187 0.9177 0.9167 0.9157
2555.589891 0.9147 0.9136 0.9126 0.9116 0.9110
2562.640445 0.9110 0.9106 0.9096 0.9090 0.9090
2569.690998 0.9088 0.9083 0.9080 0.9080 0.9075
2576.741552 0.9065 0.9055 0.9045 0.9035 0.9025
2583.792106 0.9020 0.9020 0.9014 0.9004 0.8988
2590.842659 0.8967 0.8950 0.8935 0.8923 0.8913
2597.893213 0.8890 0.8859 0.8836 0.8816 0.8803
2604.943766 0.8793 0.8786 0.8781 0.8780 0.8780
2611.994320 0.8780 0.8780 0.8780 0.8780 0.8784
2619.044873 0.8789 0.8799 0.8809 0.8810 0.8810
2626.095427 0.8819 0.8829 0.8830 0.8830 0.8839
2633.145981 0.8849 0.8860 0.8870 0.8870 0.8870
2640.196534 0.8880 0.8890 0.8900 0.8910 0.8910
2647.247088 0.8911 0.8921 0.8930 0.8930 0.8931
2654.297641 0.8936 0.8940 0.8940 0.8939 0.8934
2661.348195 0.8930 0.8930 0.8928 0.8918 0.8908
2668.398748 0.8898 0.8887 0.8877 0.8865 0.8844
2675.449302 0.8827 0.8817 0.8807 0.8797 0.8782
2682.499855 0.8757 0.8740 0.8740 0.8744 0.8754
2689.550409 0.8764 0.8774 0.8782 0.8787 0.8790
2696.600963 0.8790 0.8795 0.8805 0.8810 0.8810
2703.651516 0.8810 0.8810 0.8805 0.8795 0.8787
2710.702070 0.8782 0.8769 0.8748 0.8728 0.8708
2717.752623 0.8688 0.8668 0.8651 0.8635 0.8610
2724.803177 0.8580 0.8556 0.8536 0.8512 0.8487
2731.853730 0.8465 0.8445 0.8432 0.8422 0.8420
2738.904284 0.8420 0.8428 0.8438 0.8440 0.8440
2745.954838 0.8457 0.8477 0.8493 0.8508 0.8519
2753.005391 0.8529 0.8539 0.8549 0.8569 0.8589
2760.055945 0.8609 0.8629 0.8630 0.8630 0.8635
2767.106498 0.8640 0.8650 0.8660 0.8660 0.8660
2774.157052 0.8660 0.8660 0.8660 0.8660 0.8660
2781.207605 0.8659 0.8649 0.8639 0.8634 0.8630
2788.258159 0.8630 0.8628 0.8618 0.8608 0.8598
2795.308713 0.8583 0.8553 0.8525 0.8505 0.8476
2802.359266 0.8420 0.8370 0.8335 0.8298 0.8257
2809.409820 0.8223 0.8203 0.8185 0.8169 0.8148
2816.460373 0.8118 0.8088 0.8058 0.8017 0.7961
2823.510927 0.7915 0.7879 0.7846 0.7816 0.7781
2830.561480 0.7740 0.7707 0.7682 0.7641 0.7585
2837.612034 0.7520 0.7450 0.7361 0.7260 0.7135
2844.662588 0.6994 0.6840 0.6678 0.6462 0.6215
2851.713141 0.6001 0.5804 0.5450 0.5021 0.4620
2858.763695 0.4231 0.3871 0.3523 0.3205 0.2898
2865.814248 0.2613 0.2336 0.2078 0.1826 0.1602
2872.864802 0.1385 0.1181 0.0979 0.0799 0.0622
2879.915355 0.0582 0.0562 0.0551 0.0541 0.0549
2886.965909 0.0559 0.0612 0.0667 0.0743 0.0820
2894.016462 0.0936 0.1053 0.1230 0.1406 0.1557
2901.067016 0.1705 0.1801 0.1893 0.1928 0.1958
2908.117570 0.1932 0.1904 0.1854 0.1800 0.1724
2915.168123 0.1645 0.1544 0.1443 0.1346 0.1254
2922.218677 0.1178 0.1104 0.1039 0.0976 0.0920
2929.269230 0.0863 0.0803 0.0733 0.0642 0.0577
2936.319784 0.0567 0.0563 0.0573 0.0589 0.0614
2943.370337 0.0630 0.0630 0.0626 0.0616 0.0566
2950.420891 0.0465 0.0380 0.0315 0.0230 0.0124
2957.471445 0.0060 0.0040 0.0030 0.0030 0.0025
2964.521998 0.0015 0.0010 0.0010 0.0010 0.0010
2971.572552 0.0010 0.0010 0.0016 0.0026 0.0037
2978.623105 0.0047 0.0064 0.0084 0.0128 0.0184
2985.673659 0.0247 0.0312 0.0891 0.1658 0.2350
2992.724212 0.3016 0.3395 0.3688 0.4084 0.4508
2999.774766 0.4920 0.5329 0.5743 0.6157 0.6563
3006.825320 0.6966 0.7375 0.7784 0.7917 0.8023
3013.875873 0.8035 0.8040 0.8040 0.8040 0.8069
3020.926427 0.8100 0.8120 0.8140 0.8165 0.8191
3027.976980 0.8231 0.8271 0.8302 0.8330 0.8336
3035.027534 0.8341 0.8351 0.8363 0.8383 0.8403
3042.078087 0.8423 0.8444 0.8469 0.8492 0.8502
3049.128641 0.8512 0.8522 0.8535 0.8555 0.8577
3056.179195 0.8608 0.8631 0.8636 0.8649 0.8680
3063.229748 0.8707 0.8727 0.8747 0.8767 0.8780
3070.280302 0.8780 0.8782 0.8787 0.8794 0.8804
3077.330855 0.8814 0.8824 0.8834 0.8845 0.8859
3084.381409 0.8880 0.8890 0.8890 0.8895 0.8905
3091.431962 0.8910 0.8910 0.8916 0.8926 0.8930
3098.482516 0.8930 0.8930 0.8930 0.8930 0.8930
3105.533069 0.8924 0.8913 0.8910 0.8910 0.8903
3112.583623 0.8893 0.8883 0.8873 0.8870 0.8870
3119.634177 0.8862 0.8852 0.8850 0.8850 0.8842
3126.684730 0.8832 0.8830 0.8830 0.8830 0.8830
3133.735284 0.8821 0.8811 0.8810 0.8810 0.8801
3140.785837 0.8791 0.8785 0.8780 0.8770 0.8760
3147.836391 0.8750 0.8740 0.8720 0.8700 0.8690
3154.886944 0.8679 0.8659 0.8639 0.8624 0.8608
3161.937498 0.8588 0.8569 0.8559 0.8550 0.8550
3168.988052 0.8550 0.8550 0.8550 0.8550 0.8552
3176.038605 0.8562 0.8570 0.8570 0.8575 0.8595
3183.089159 0.8613 0.8623 0.8634 0.8649 0.8663
3190.139712 0.8673 0.8686 0.8707 0.8723 0.8734
3197.190266 0.8749 0.8775 0.8798 0.8818 0.8839
3204.240819 0.8859 0.8879 0.8899 0.8915 0.8925
3211.291373 0.8942 0.8967 0.8980 0.8980 0.8985
3218.341927 0.8995 0.9005 0.9016 0.9026 0.9036
3225.392480 0.9040 0.9040 0.9046 0.9056 0.9060
3232.443034 0.9060 0.9067 0.9077 0.9080 0.9080
3239.493587 0.9080 0.9080 0.9084 0.9089 0.9090
3246.544141 0.9090 0.9090 0.9090 0.9090 0.9090
3253.594694 0.9098 0.9108 0.9118 0.9129 0.9130
3260.645248 0.9130 0.9130 0.9130 0.9130 0.9130
3267.695802 0.9130 0.9130 0.9130 0.9130 0.9130
3274.746355 0.9130 0.9130 0.9130 0.9130 0.9130
3281.796909 0.9130 0.9130 0.9130 0.9130 0.9130
3288.847462 0.9130 0.9130 0.9130 0.9130 0.9130
3295.898016 0.9130 0.9130 0.9130 0.9130 0.9130
3302.948569 0.9130 0.9130 0.9130 0.9130 0.9130
3309.999123 0.9130 0.9130 0.9130 0.9130 0.9130
3317.049676 0.9130 0.9130 0.9130 0.9130 0.9130
3324.100230 0.9130 0.9130 0.9130 0.9130 0.9130
3331.150784 0.9130 0.9130 0.9130 0.9130 0.9130
3338.201337 0.9130 0.9130 0.9130 0.9130 0.9130
3345.251891 0.9130 0.9130 0.9130 0.9130 0.9130
3352.302444 0.9130 0.9130 0.9130 0.9130 0.9130
3359.352998 0.9130 0.9130 0.9130 0.9130 0.9130
3366.403551 0.9130 0.9123 0.9113 0.9103 0.9093
3373.454105 0.9090 0.9090 0.9090 0.9090 0.9090
3380.504659 0.9090 0.9086 0.9081 0.9080 0.9080
3387.555212 0.9080 0.9080 0.9080 0.9080 0.9085
3394.605766 0.9090 0.9090 0.9090 0.9100 0.9110
3401.656319 0.9120 0.9130 0.9130 0.9130 0.9130
3408.706873 0.9130 0.9130 0.9130 0.9130 0.9130
3415.757426 0.9130 0.9129 0.9119 0.9110 0.9110
3422.807980 0.9110 0.9110 0.9108 0.9098 0.9090
3429.858534 0.9090 0.9090 0.9090 0.9092 0.9102
3436.909087 0.9110 0.9110 0.9110 0.9110 0.9110
3443.959641 0.9110 0.9113 0.9123 0.9130 0.9130
3451.010194 0.9130 0.9130 0.9130 0.9130 0.9134
3458.060748 0.9144 0.9150 0.9150 0.9155 0.9165
3465.111301 0.9170 0.9170 0.9170 0.9170 0.9170
3472.161855 0.9170 0.9170 0.9170 0.9170 0.9170
3479.212409 0.9170 0.9170 0.9170 0.9170 0.9164
3486.262962 0.9154 0.9150 0.9150 0.9143 0.9133
3493.313516 0.9130 0.9130 0.9123 0.9113 0.9110
3500.364069 0.9110 0.9110 0.9110 0.9110 0.9110
3507.414623 0.9110 0.9110 0.9110 0.9110 0.9110
3514.465176 0.9110 0.9119 0.9129 0.9130 0.9130
3521.515730 0.9130 0.9130 0.9139 0.9149 0.9150
3528.566283 0.9150 0.9160 0.9170 0.9180 0.9190
3535.616837 0.9200 0.9210 0.9210 0.9210 0.9210
3542.667391 0.9209 0.9199 0.9189 0.9179 0.9170
3549.717944 0.9170 0.9169 0.9158 0.9150 0.9150
3556.768498 0.9148 0.9138 0.9130 0.9130 0.9130
3563.819051 0.9130 0.9133 0.9143 0.9153 0.9163
3570.869605 0.9170 0.9170 0.9170 0.9170 0.9170
3577.920158 0.9170 0.9170 0.9170 0.9174 0.9184
3584.970712 0.9190 0.9190 0.9194 0.9205 0.9210
3592.021266 0.9210 0.9210 0.9210 0.9205 0.9195
3599.071819 0.9185 0.9175 0.9170 0.9170 0.9164
3606.122373 0.9154 0.9150 0.9150 0.9150 0.9150
3613.172926 0.9150 0.9150 0.9163 0.9183 0.9190
3620.223480 0.9190 0.9197 0.9207 0.9210 0.9210
3627.274033 0.9210 0.9210 0.9210 0.9210 0.9194
3634.324587 0.9174 0.9162 0.9152 0.9150 0.9150
3641.375141 0.9150 0.9150 0.9150 0.9150 0.9159
3648.425694 0.9169 0.9179 0.9189 0.9190 0.9190
3655.476248 0.9190 0.9190 0.9190 0.9190 0.9180
3662.526801 0.9170 0.9160 0.9150 0.9140 0.9129
3669.577355 0.9119 0.9110 0.9110 0.9110 0.9110
3676.627908 0.9110 0.9110 0.9112 0.9122 0.9132
3683.678462 0.9142 0.9152 0.9162 0.9170 0.9170
3690.729016 0.9172 0.9182 0.9190 0.9190 0.9190
3697.779569 0.9190 0.9187 0.9177 0.9170 0.9170
3704.830123 0.9166 0.9156 0.9150 0.9150 0.9154
3711.880676 0.9164 0.9170 0.9170 0.9170 0.9170
3718.931230 0.9170 0.9170 0.9170 0.9170 0.9165
3725.981783 0.9155 0.9145 0.9135 0.9130 0.9130
3733.032337 0.9124 0.9114 0.9104 0.9094 0.9090
3740.082890 0.9090 0.9087 0.9082 0.9080 0.9080
3747.133444 0.9083 0.9088 0.9090 0.9090 0.9097
3754.183998 0.9107 0.9117 0.9128 0.9130 0.9130
3761.234551 0.9130 0.9130 0.9138 0.9148 0.9150
3768.285105 0.9150 0.9150 0.9150 0.9150 0.9150
3775.335658 0.9150 0.9150 0.9150 0.9150 0.9150
3782.386212 0.9150 0.9140 0.9130 0.9130 0.9130
3789.436765 0.9120 0.9110 0.9110 0.9110 0.9110
3796.487319 0.9110 0.9110 0.9110 0.9110 0.9110
3803.537873 0.9110 0.9109 0.9099 0.9090 0.9090
3810.588426 0.9090 0.9090 0.9090 0.9090 0.9090
3817.638980 0.9090 0.9090 0.9090 0.9090 0.9090
3824.689533 0.9089 0.9083 0.9077 0.9067 0.9060
3831.740087 0.9060 0.9057 0.9046 0.9040 0.9040
3838.790640 0.9040 0.9040 0.9040 0.9040 0.9045
3845.841194 0.9055 0.9060 0.9060 0.9065 0.9075
3852.891748 0.9080 0.9080 0.9080 0.9080 0.9080
3859.942301 0.9080 0.9080 0.9080 0.9080 0.9080
3866.992855 0.9080 0.9080 0.9080 0.9080 0.9073
3874.043408 0.9063 0.9060 0.9060 0.9060 0.9060
3881.093962 0.9060 0.9060 0.9060 0.9060 0.9052
3888.144515 0.9042 0.9040 0.9040 0.9040 0.9040
3895.195069 0.9040 0.9040 0.9040 0.9040 0.9031
3902.245623 0.9021 0.9020 0.9020 0.9020 0.9020
3909.296176 0.9020 0.9020 0.9020 0.9020 0.9020
3916.346730 0.9020 0.9030 0.9040 0.9040 0.9040
3923.397283 0.9051 0.9060 0.9060 0.9061 0.9071
3930.447837 0.9080 0.9080 0.9081 0.9086 0.9090
3937.498390 0.9090 0.9090 0.9090 0.9092 0.9102
3944.548944 0.9110 0.9110 0.9110 0.9110 0.9110
3951.599497 0.9110 0.9110 0.9110 0.9110 0.9110
3958.650051 0.9110 0.9110 0.9110 0.9110 0.9110
3965.700605 0.9110 0.9110 0.9110 0.9110 0.9110
3972.751158 0.9110 0.9110 0.9105 0.9095 0.9090
3979.801712 0.9090 0.9082 0.9067 0.9060 0.9060
3986.852265 0.9043 0.9013
##END=
