##TITLE=p-xylene
##JCAMP-DX=4.24
##DATA TYPE=INFRARED SPECTRUM
##CLASS=COBLENTZ
##ORIGIN=DOW CHEMICAL COMPANY
##OWNER=COBLENTZ SOCIETY
Collection (C) 2009 copyright by the U.S. Secretary of Commerce
on behalf of the United States of America. All rights reserved.
##DATE=1979/03/13
##NAMES=p-XYLENE
##CAS REGISTRY NO=106-42-3
##MOLFORM=C8 H10
##BP=139 C
##SOURCE REFERENCE=COBLENTZ NO. 10543
##$NIST SOURCE=COBLENTZ
##$NIST IMAGE=cob-r10543
##SPECTROMETER/DATA SYSTEM=PERKIN-ELMER 180
##INSTRUMENT PARAMETERS=
$$ ABSORPTIONS DUE TO UNKNOWNS AT 1183 AND 742 CM^-^1.
##STATE=VAPOR
##PARTIAL_PRESSURE=5 mmHg
##PATH LENGTH=18 CM
##SAMPLING PROCEDURE=TRANSMISSION
##RESOLUTION=1 CM^-^1
##DATA PROCESSING=DIGITIZED BY NIST FROM HARD COPY (FROM TWO SEGMENTS)
##XUNITS=1/CM
##YUNITS=TRANSMITTANCE
##XFACTOR=1.000000
##YFACTOR=1
##DELTAX=1.450452
##FIRSTX=202.901
##LASTX=3998.73
##FIRSTY=0.013
##MAXX=3998.73
##MINX=202.901
##MAXY=0.959
##MINY=0
##NPOINTS=2618
##XYDATA=(X++(Y..Y))
202.901000 0.0130 0.0130 0.0110 0.0100 0.0080
210.153258 0.0070 0.0070 0.0070 0.0070 0.0070
217.405516 0.0050 0.0050 0.0040 0.0040 0.0040
224.657774 0.0020 0.0020 0.0020 0.0020 0.0020
231.910032 0.0020 0.0020 0.0020 0.0010 0.0010
239.162290 0.0020 0.0010 0.0010 0.0010 0.0010
246.414548 0.0010 0.0020 0.0020 0.0010 0.0010
253.666806 0.0010 0.0010 0.0010 0.0000 0.0000
260.919064 0.0010 0.0010 0.0010 0.0010 0.0010
268.171322 0.0000 0.0000 0.0010 0.0010 0.0010
275.423580 0.0010 0.0010 0.0000 0.0000 0.0010
282.675838 0.0010 0.0010 0.0010 0.0010 0.0010
289.928096 0.0010 0.0010 0.0010 0.0010 0.0010
297.180354 0.0010 0.0020 0.0020 0.0010 0.0010
304.432612 0.0010 0.0010 0.0010 0.0010 0.0020
311.684870 0.0020 0.0040 0.0040 0.0070 0.0100
318.937128 0.0170 0.0230 0.0290 0.0290 0.0340
326.189386 0.0420 0.0500 0.0609 0.0739 0.0780
333.441644 0.0850 0.0910 0.0980 0.1030 0.1100
340.693902 0.1249 0.1360 0.1459 0.1549 0.1590
347.946160 0.1700 0.1860 0.1970 0.2040 0.2150
355.198418 0.2200 0.2280 0.2360 0.2539 0.2679
362.450676 0.2860 0.2960 0.3020 0.3090 0.3180
369.702934 0.3369 0.3480 0.3609 0.3699 0.3819
376.955192 0.3880 0.3980 0.4140 0.4280 0.4410
384.207450 0.4490 0.4540 0.4659 0.4789 0.5009
391.459708 0.5150 0.5210 0.5300 0.5370 0.5520
398.711966 0.5690 0.5810 0.5910 0.5950 0.6039
405.964224 0.6130 0.6220 0.6300 0.6490 0.6550
413.216482 0.6590 0.6610 0.6670 0.6799 0.6840
420.468740 0.6960 0.7000 0.7020 0.7070 0.7150
427.720998 0.7280 0.7310 0.7350 0.7390 0.7420
434.973256 0.7480 0.7520 0.7550 0.7580 0.7580
442.225514 0.7580 0.7580 0.7580 0.7570 0.7540
449.477772 0.7390 0.7280 0.7190 0.7120 0.7020
456.730030 0.6990 0.6970 0.6970 0.6960 0.6910
463.982288 0.6680 0.6300 0.5461 0.6289 0.7018
471.234546 0.7060 0.7070 0.7070 0.7090 0.7090
478.486804 0.7100 0.7100 0.7120 0.7130 0.7190
485.739062 0.7220 0.7340 0.7410 0.7549 0.7679
492.991320 0.7741 0.8440 0.8630 0.8800 0.8980
500.243578 0.9149 0.9299 0.9310 0.9360 0.9400
507.495836 0.9400 0.9360 0.9370 0.9370 0.9360
514.748094 0.9360 0.9370 0.9410 0.9460 0.9460
522.000352 0.9460 0.9440 0.9440 0.9430 0.9430
529.252610 0.9430 0.9490 0.9500 0.9500 0.9500
536.504868 0.9500 0.9520 0.9520 0.9460 0.9470
543.757126 0.9470 0.9460 0.9460 0.9490 0.9530
551.009384 0.9540 0.9540 0.9540 0.9540 0.9470
558.261642 0.9460 0.9470 0.9540 0.9570 0.9570
565.513900 0.9560 0.9540 0.9530 0.9520 0.9500
572.766158 0.9520 0.9520 0.9520 0.9520 0.9490
580.018416 0.9430 0.9430 0.9460 0.9460 0.9470
587.270674 0.9530 0.9590 0.9590 0.9530 0.9500
594.522932 0.9500 0.9500 0.9470 0.9460 0.9430
601.775190 0.9400 0.9400 0.9430 0.9430 0.9460
609.027448 0.9500 0.9460 0.9460 0.9460 0.9430
616.279706 0.9500 0.9500 0.9500 0.9460 0.9460
623.531964 0.9460 0.9440 0.9430 0.9430 0.9410
630.784222 0.9410 0.9410 0.9410 0.9410 0.9430
638.036480 0.9440 0.9440 0.9440 0.9460 0.9460
645.288738 0.9460 0.9430 0.9410 0.9400 0.9380
652.540996 0.9370 0.9370 0.9360 0.9360 0.9340
659.793254 0.9340 0.9330 0.9340 0.9340 0.9330
667.045512 0.9330 0.9330 0.9330 0.9340 0.9330
674.297770 0.9330 0.9310 0.9330 0.9330 0.9340
681.550028 0.9330 0.9330 0.9310 0.9310 0.9280
688.802286 0.9280 0.9270 0.9280 0.9280 0.9280
696.054544 0.9280 0.9280 0.9240 0.9240 0.9220
703.306802 0.9250 0.9270 0.9310 0.9310 0.9300
710.559060 0.9280 0.9280 0.9280 0.9270 0.9250
717.811318 0.9240 0.9210 0.9080 0.9020 0.8980
725.063576 0.8920 0.8880 0.8830 0.8790 0.8750
732.315834 0.8690 0.8670 0.8670 0.8670 0.8670
739.568092 0.8627 0.7290 0.7291 0.8600 0.8610
746.820350 0.8610 0.8610 0.8610 0.8610 0.8700
754.072608 0.8820 0.8850 0.8880 0.8890 0.8900
761.324866 0.8920 0.8930 0.8930 0.8920 0.8890
768.577124 0.8880 0.8800 0.8700 0.8500 0.8290
775.829382 0.8060 0.7970 0.7771 0.7541 0.7341
783.081640 0.6959 0.6650 0.6550 0.6320 0.6260
790.333898 0.6260 0.6110 0.5841 0.5083 0.4314
797.586156 0.2806 0.5461 0.6040 0.6060 0.6220
804.838414 0.6380 0.6540 0.6670 0.6909 0.7159
812.090672 0.7351 0.7790 0.8050 0.8150 0.8370
819.342930 0.8510 0.8600 0.8660 0.8799 0.8830
826.595188 0.8850 0.8900 0.8900 0.8850 0.8850
833.847446 0.8860 0.8890 0.8900 0.8900 0.8920
841.099704 0.8920 0.8880 0.8860 0.8860 0.8890
848.351962 0.8890 0.8890 0.8890 0.8880 0.8850
855.604220 0.8830 0.8820 0.8820 0.8820 0.8820
862.856478 0.8830 0.8850 0.8850 0.8830 0.8850
870.108736 0.8860 0.8880 0.8900 0.8900 0.8880
877.360994 0.8850 0.8830 0.8820 0.8820 0.8800
884.613252 0.8800 0.8800 0.8800 0.8800 0.8800
891.865510 0.8820 0.8850 0.8850 0.8850 0.8850
899.117768 0.8850 0.8820 0.8820 0.8800 0.8820
906.370026 0.8830 0.8830 0.8850 0.8850 0.8850
913.622284 0.8850 0.8890 0.8860 0.8820 0.8790
920.874542 0.8770 0.8720 0.8720 0.8770 0.8800
928.126800 0.8800 0.8800 0.8800 0.8800 0.8820
935.379058 0.8830 0.8850 0.8850 0.8850 0.8880
942.631316 0.8880 0.8880 0.8890 0.8930 0.8890
949.883574 0.8850 0.8820 0.8820 0.8790 0.8790
957.135832 0.8820 0.8820 0.8820 0.8820 0.8820
964.388090 0.8790 0.8720 0.8720 0.8720 0.8720
971.640348 0.8720 0.8800 0.8800 0.8720 0.8720
978.892606 0.8700 0.8700 0.8700 0.8670 0.8660
986.144864 0.8610 0.8610 0.8670 0.8690 0.8690
993.397122 0.8630 0.8640 0.8670 0.8720 0.8730
1000.649380 0.8750 0.8790 0.9010 0.9170 0.9310
1007.901638 0.9300 0.9300 0.9270 0.9240 0.9210
1015.153896 0.9120 0.9020 0.8950 0.8900 0.8890
1022.406154 0.8900 0.8990 0.8990 0.8900 0.8890
1029.658412 0.8890 0.8890 0.8900 0.8990 0.8990
1036.910670 0.8990 0.8950 0.8930 0.8930 0.8920
1044.162928 0.8890 0.8820 0.8800 0.8790 0.8790
1051.415186 0.8790 0.8790 0.8790 0.8820 0.8920
1058.667444 0.8930 0.8930 0.8980 0.9040 0.9060
1065.919702 0.9060 0.9010 0.8930 0.8920 0.8950
1073.171960 0.8990 0.9080 0.9120 0.9120 0.9090
1080.424218 0.9080 0.9010 0.9010 0.9080 0.9090
1087.676476 0.9080 0.9080 0.9060 0.9010 0.9010
1094.928734 0.9080 0.9080 0.9020 0.8990 0.8980
1102.180992 0.8950 0.8920 0.8880 0.8820 0.8790
1109.433250 0.8770 0.8720 0.8610 0.8570 0.8510
1116.685508 0.8510 0.8590 0.8690 0.8750 0.8770
1123.937766 0.8770 0.8560 0.8530 0.8560 0.8759
1131.190024 0.8820 0.8900 0.8980 0.9040 0.9080
1138.442282 0.9090 0.9090 0.9180 0.9180 0.9080
1145.694540 0.9060 0.9080 0.9120 0.9200 0.9200
1152.946798 0.9200 0.9120 0.9120 0.9220 0.9240
1160.199056 0.9240 0.9240 0.9180 0.9210 0.9240
1167.451314 0.9250 0.9250 0.9270 0.9270 0.9250
1174.703572 0.9220 0.9220 0.9200 0.9110 0.9020
1181.955830 0.9010 0.9010 0.9050 0.9120 0.9150
1189.208088 0.9180 0.9180 0.9200 0.9200 0.9220
1196.460346 0.9250 0.9280 0.9280 0.9280 0.9270
1203.712604 0.9270 0.9250 0.9220 0.9200 0.9170
1210.964862 0.9140 0.9080 0.9050 0.9020 0.9010
1218.217120 0.9010 0.8990 0.8980 0.8960 0.8960
1225.469378 0.8950 0.8930 0.8920 0.8930 0.8960
1232.721636 0.9010 0.9040 0.9040 0.9020 0.9010
1239.973894 0.8990 0.8950 0.8920 0.8930 0.8980
1247.226152 0.8990 0.9010 0.9020 0.9040 0.9080
1254.478410 0.9110 0.9170 0.9210 0.9220 0.9210
1261.730668 0.9180 0.9120 0.9120 0.9120 0.9140
1268.982926 0.9150 0.9170 0.9180 0.9220 0.9220
1276.235184 0.9110 0.9120 0.9150 0.9180 0.9210
1283.487442 0.9240 0.9250 0.9250 0.9240 0.9220
1290.739700 0.9210 0.9210 0.9120 0.9110 0.9120
1297.991958 0.9180 0.9180 0.9180 0.9150 0.9110
1305.244216 0.9110 0.9110 0.9110 0.9140 0.9140
1312.496474 0.9120 0.9090 0.9080 0.9080 0.9060
1319.748732 0.9080 0.9090 0.9110 0.9110 0.9060
1327.000990 0.9050 0.9020 0.9010 0.8990 0.8990
1334.253248 0.8990 0.9010 0.9080 0.9140 0.9150
1341.505507 0.9110 0.9040 0.8950 0.8900 0.8890
1348.757765 0.8880 0.8880 0.8880 0.8890 0.8920
1356.010023 0.8930 0.8930 0.8980 0.8990 0.9020
1363.262281 0.9080 0.9080 0.9020 0.8980 0.8950
1370.514539 0.8930 0.8920 0.8890 0.8880 0.8800
1377.766797 0.8730 0.8720 0.8690 0.8600 0.8540
1385.019055 0.8410 0.8310 0.8290 0.8310 0.8380
1392.271313 0.8450 0.8540 0.8610 0.8630 0.8690
1399.523571 0.8750 0.8790 0.8820 0.8830 0.8820
1406.775829 0.8760 0.8760 0.8760 0.8750 0.8750
1414.028087 0.8750 0.8700 0.8690 0.8590 0.8530
1421.280345 0.8500 0.8480 0.8440 0.8410 0.8350
1428.532603 0.8350 0.8320 0.8340 0.8350 0.8350
1435.784861 0.8289 0.8080 0.8060 0.8110 0.8180
1443.037119 0.8210 0.8220 0.8220 0.8220 0.8210
1450.289377 0.8190 0.8180 0.8150 0.8120 0.8049
1457.541635 0.7680 0.7680 0.8000 0.8000 0.8000
1464.793893 0.7970 0.7930 0.7890 0.7840 0.7830
1472.046151 0.7770 0.7700 0.7700 0.7770 0.7870
1479.298409 0.7951 0.8060 0.8130 0.8180 0.8190
1486.550667 0.8150 0.8110 0.8110 0.8090 0.8090
1493.802925 0.8090 0.8130 0.8080 0.7970 0.7950
1501.055183 0.7950 0.7920 0.7920 0.7890 0.7800
1508.307441 0.7598 0.7218 0.6869 0.6539 0.6039
1515.559699 0.5500 0.5470 0.5470 0.5470 0.5360
1522.811957 0.5330 0.5360 0.5430 0.5500 0.5500
1530.064215 0.5521 0.6360 0.6870 0.7260 0.7799
1537.316473 0.8061 0.8340 0.8400 0.8410 0.8450
1544.568731 0.8540 0.8660 0.8700 0.8720 0.8750
1551.820989 0.8790 0.8800 0.8890 0.8890 0.8820
1559.073247 0.8820 0.8820 0.8850 0.8890 0.8890
1566.325505 0.8880 0.8830 0.8830 0.8820 0.8830
1573.577763 0.8880 0.8890 0.8900 0.8890 0.8880
1580.830021 0.8900 0.8920 0.8930 0.8950 0.8950
1588.082279 0.8920 0.8900 0.8900 0.8920 0.8920
1595.334537 0.8930 0.8930 0.8930 0.8930 0.8930
1602.586795 0.8950 0.8920 0.8890 0.8860 0.8860
1609.839053 0.8850 0.8830 0.8830 0.8800 0.8760
1617.091311 0.8720 0.8700 0.8690 0.8670 0.8630
1624.343569 0.8631 0.8720 0.8800 0.8800 0.8820
1631.595827 0.8820 0.8820 0.8720 0.8670 0.8630
1638.848085 0.8701 0.8830 0.8860 0.8890 0.8900
1646.100343 0.8930 0.8980 0.8980 0.8930 0.8920
1653.352601 0.8880 0.8920 0.8930 0.8960 0.8960
1660.604859 0.8980 0.8990 0.9020 0.9080 0.9080
1667.857117 0.9050 0.9020 0.9020 0.9020 0.9010
1675.109375 0.9010 0.8980 0.8980 0.8990 0.8990
1682.361633 0.8980 0.8980 0.8980 0.8990 0.9010
1689.613891 0.9020 0.9020 0.9040 0.9020 0.8990
1696.866149 0.8950 0.8930 0.8930 0.8930 0.8920
1704.118407 0.9010 0.9010 0.8960 0.8990 0.8990
1711.370665 0.8990 0.9010 0.8990 0.8960 0.8900
1718.622923 0.8860 0.8860 0.8890 0.8900 0.8930
1725.875181 0.8990 0.8990 0.8990 0.8990 0.8950
1733.127439 0.8900 0.8890 0.8880 0.8880 0.8890
1740.379697 0.8900 0.8920 0.8930 0.8930 0.8930
1747.631955 0.8930 0.8930 0.8930 0.8930 0.8900
1754.884213 0.8900 0.8880 0.8880 0.8890 0.8900
1762.136471 0.8900 0.8900 0.8900 0.8900 0.8900
1769.388729 0.8890 0.8890 0.8880 0.8850 0.8820
1776.640987 0.8800 0.8800 0.8800 0.8790 0.8770
1783.893245 0.8760 0.8750 0.8730 0.8720 0.8720
1791.145503 0.8730 0.8760 0.8770 0.8800 0.8820
1798.397761 0.8850 0.8880 0.8890 0.8930 0.8980
1805.650019 0.8990 0.8990 0.9010 0.9010 0.9010
1812.902277 0.9020 0.9010 0.9010 0.8990 0.8920
1820.154535 0.8900 0.8900 0.8890 0.8880 0.8860
1827.406793 0.8860 0.8830 0.8830 0.8830 0.8830
1834.659051 0.8830 0.8830 0.8850 0.8860 0.8900
1841.911309 0.8900 0.8930 0.8930 0.8900 0.8880
1849.163567 0.8860 0.8830 0.8830 0.8860 0.8890
1856.415825 0.8900 0.8900 0.8950 0.8960 0.8950
1863.668083 0.8920 0.8900 0.8830 0.8820 0.8800
1870.920341 0.8760 0.8720 0.8700 0.8670 0.8660
1878.172599 0.8640 0.8640 0.8640 0.8630 0.8630
1885.424857 0.8630 0.8630 0.8610 0.8610 0.8600
1892.677115 0.8600 0.8610 0.8670 0.8720 0.8750
1899.929373 0.8770 0.8800 0.8830 0.8860 0.8880
1907.181631 0.8880 0.8890 0.8860 0.8830 0.8830
1914.433889 0.8850 0.8880 0.8920 0.8930 0.8930
1921.686147 0.8950 0.8950 0.8950 0.8950 0.8930
1928.938405 0.8930 0.8920 0.8900 0.8880 0.8860
1936.190663 0.8880 0.8890 0.8890 0.8860 0.8830
1943.442921 0.8830 0.8830 0.8860 0.8890 0.8890
1950.695179 0.8880 0.8850 0.8770 0.8760 0.8760
1957.947437 0.8830 0.8850 0.8860 0.8880 0.8890
1965.199695 0.8890 0.8920 0.8920 0.8930 0.8930
1972.451953 0.8930 0.8930 0.8930 0.8930 0.8890
1979.704211 0.8890 0.8890 0.8900 0.8900 0.8900
1986.956469 0.8900 0.8900 0.8900 0.8890 0.8880
1994.208727 0.8850 0.8850 0.8890 0.9080 0.9340
2001.460985 0.9405 0.9470 0.9480 0.9490 0.9495
2008.713243 0.9500 0.9442 0.9382 0.9375 0.9370
2015.965501 0.9337 0.9302 0.9291 0.9281 0.9289
2023.217759 0.9299 0.9300 0.9300 0.9328 0.9358
2030.470017 0.9397 0.9437 0.9449 0.9459 0.9419
2037.722275 0.9374 0.9370 0.9370 0.9374 0.9379
2044.974533 0.9402 0.9427 0.9430 0.9430 0.9430
2052.226791 0.9430 0.9430 0.9430 0.9421 0.9411
2059.479049 0.9410 0.9410 0.9406 0.9401 0.9383
2066.731307 0.9363 0.9348 0.9333 0.9330 0.9330
2073.983565 0.9334 0.9339 0.9348 0.9358 0.9364
2081.235823 0.9369 0.9374 0.9379 0.9380 0.9380
2088.488081 0.9380 0.9380 0.9376 0.9371 0.9370
2095.740339 0.9370 0.9366 0.9361 0.9349 0.9334
2102.992597 0.9323 0.9313 0.9317 0.9327 0.9370
2110.244855 0.9424 0.9447 0.9457 0.9460 0.9460
2117.497113 0.9442 0.9417 0.9392 0.9367 0.9329
2124.749371 0.9284 0.9253 0.9228 0.9220 0.9220
2132.001629 0.9250 0.9295 0.9320 0.9335 0.9340
2139.253887 0.9340 0.9318 0.9283 0.9270 0.9270
2146.506145 0.9273 0.9278 0.9280 0.9280 0.9289
2153.758403 0.9304 0.9329 0.9358 0.9379 0.9394
2161.010661 0.9391 0.9376 0.9367 0.9362 0.9343
2168.262919 0.9313 0.9277 0.9237 0.9214 0.9204
2175.515177 0.9200 0.9200 0.9228 0.9278 0.9300
2182.767435 0.9300 0.9300 0.9300 0.9300 0.9300
2190.019693 0.9295 0.9285 0.9254 0.9204 0.9177
2197.271951 0.9172 0.9165 0.9155 0.9155 0.9165
2204.524209 0.9178 0.9193 0.9202 0.9207 0.9212
2211.776467 0.9217 0.9220 0.9220 0.9227 0.9242
2219.028725 0.9257 0.9272 0.9287 0.9302 0.9317
2226.280983 0.9331 0.9353 0.9383 0.9400 0.9400
2233.533241 0.9409 0.9429 0.9440 0.9440 0.9373
2240.785499 0.9214 0.9124 0.9134 0.9180 0.9279
2248.037757 0.9340 0.9340 0.9334 0.9319 0.9308
2255.290015 0.9303 0.9296 0.9286 0.9278 0.9273
2262.542273 0.9261 0.9236 0.9208 0.9173 0.9150
2269.794531 0.9150 0.9148 0.9143 0.9140 0.9140
2277.046789 0.9149 0.9179 0.9202 0.9206 0.9211
2284.299047 0.9216 0.9220 0.9220 0.9220 0.9220
2291.551305 0.9220 0.9220 0.9220 0.9220 0.9217
2298.803563 0.9207 0.9192 0.9162 0.9140 0.9140
2306.055821 0.9138 0.9128 0.9126 0.9151 0.9175
2313.308079 0.9194 0.9210 0.9210 0.9210 0.9210
2320.560337 0.9203 0.9173 0.9150 0.9150 0.9155
2327.812595 0.9180 0.9200 0.9200 0.9202 0.9212
2335.064853 0.9222 0.9232 0.9238 0.9228 0.9219
2342.317111 0.9214 0.9210 0.9210 0.9210 0.9210
2349.569369 0.9210 0.9210 0.9211 0.9216 0.9221
2356.821627 0.9231 0.9236 0.9206 0.9179 0.9174
2364.073885 0.9170 0.9170 0.9173 0.9208 0.9240
2371.326143 0.9240 0.9238 0.9208 0.9179 0.9159
2378.578401 0.9140 0.9140 0.9143 0.9177 0.9210
2385.830659 0.9210 0.9210 0.9210 0.9209 0.9194
2393.082917 0.9180 0.9180 0.9180 0.9175 0.9170
2400.335175 0.9155 0.9140 0.9140 0.9140 0.9140
2407.587433 0.9140 0.9140 0.9140 0.9140 0.9140
2414.839691 0.9130 0.9120 0.9159 0.9199 0.9190
2422.091949 0.9180 0.9180 0.9180 0.9166 0.9151
2429.344207 0.9150 0.9150 0.9150 0.9150 0.9145
2436.596465 0.9140 0.9140 0.9140 0.9154 0.9169
2443.848723 0.9175 0.9180 0.9180 0.9180 0.9193
2451.100981 0.9208 0.9210 0.9210 0.9197 0.9182
2458.353239 0.9167 0.9152 0.9150 0.9150 0.9146
2465.605497 0.9141 0.9140 0.9140 0.9131 0.9121
2472.857755 0.9116 0.9111 0.9102 0.9092 0.9086
2480.110013 0.9081 0.9080 0.9080 0.9104 0.9134
2487.362271 0.9144 0.9149 0.9150 0.9150 0.9150
2494.614529 0.9150 0.9150 0.9150 0.9134 0.9114
2501.866787 0.9110 0.9110 0.9110 0.9110 0.9110
2509.119045 0.9110 0.9132 0.9162 0.9170 0.9170
2516.371303 0.9163 0.9153 0.9118 0.9073 0.9046
2523.623561 0.9025 0.9020 0.9020 0.9041 0.9071
2530.875819 0.9094 0.9114 0.9120 0.9120 0.9127
2538.128077 0.9137 0.9143 0.9148 0.9167 0.9191
2545.380335 0.9200 0.9200 0.9184 0.9159 0.9131
2552.632593 0.9100 0.9067 0.9032 0.9020 0.9020
2559.884851 0.9052 0.9101 0.9120 0.9120 0.9117
2567.137109 0.9112 0.9104 0.9094 0.9081 0.9066
2574.389367 0.9054 0.9044 0.9031 0.9016 0.9004
2581.641625 0.8994 0.8987 0.8982 0.8983 0.8988
2588.893883 0.8990 0.8990 0.8996 0.9005 0.9010
2596.146141 0.9010 0.9010 0.9010 0.9005 0.8995
2603.398399 0.8980 0.8960 0.8945 0.8935 0.8938
2610.650657 0.8953 0.8965 0.8975 0.8983 0.8987
2617.902915 0.8995 0.9005 0.9012 0.9017 0.9025
2625.155173 0.9035 0.9042 0.9047 0.9052 0.9057
2632.407431 0.9060 0.9060 0.9060 0.9060 0.9051
2639.659689 0.9031 0.9018 0.9013 0.9004 0.8989
2646.911947 0.8986 0.9001 0.9004 0.8989 0.8970
2654.164205 0.8945 0.8934 0.8944 0.8952 0.8957
2661.416463 0.8969 0.8994 0.9015 0.9030 0.9040
2668.668721 0.9040 0.9031 0.9006 0.8990 0.8990
2675.920979 0.8988 0.8983 0.8999 0.9053 0.9085
2683.173237 0.9070 0.9052 0.9027 0.9005 0.8990
2690.425495 0.8977 0.8967 0.8960 0.8960 0.8959
2697.677753 0.8954 0.8950 0.8950 0.8947 0.8937
2704.930011 0.8929 0.8924 0.8917 0.8907 0.8912
2712.182269 0.8957 0.8990 0.8990 0.8992 0.9002
2719.434527 0.9008 0.8998 0.8986 0.8966 0.8945
2726.686785 0.8919 0.8891 0.8851 0.8804 0.8729
2733.939043 0.8670 0.8670 0.8675 0.8700 0.8721
2741.191301 0.8726 0.8733 0.8748 0.8765 0.8795
2748.443559 0.8825 0.8855 0.8884 0.8909 0.8932
2755.695817 0.8947 0.8962 0.8977 0.8990 0.8990
2762.948075 0.8990 0.8990 0.8989 0.8984 0.8979
2770.200333 0.8969 0.8959 0.8954 0.8950 0.8950
2777.452591 0.8949 0.8939 0.8930 0.8925 0.8919
2784.704849 0.8909 0.8900 0.8895 0.8890 0.8885
2791.957107 0.8879 0.8869 0.8860 0.8860 0.8860
2799.209365 0.8855 0.8850 0.8850 0.8850 0.8840
2806.461623 0.8830 0.8830 0.8830 0.8825 0.8820
2813.713881 0.8805 0.8790 0.8780 0.8770 0.8770
2820.966139 0.8770 0.8750 0.8730 0.8715 0.8700
2828.218397 0.8656 0.8611 0.8576 0.8541 0.8507
2835.470655 0.8472 0.8366 0.8257 0.8119 0.7980
2842.722913 0.7783 0.7581 0.7509 0.7444 0.7356
2849.975171 0.7267 0.7182 0.7097 0.6716 0.6308
2857.227429 0.6166 0.6052 0.6036 0.6031 0.5951
2864.479687 0.5861 0.5776 0.5691 0.5671 0.5661
2871.731945 0.5669 0.5679 0.5763 0.5857 0.5943
2878.984203 0.6028 0.6134 0.6243 0.6285 0.6315
2886.236461 0.6353 0.6393 0.6400 0.6400 0.6412
2893.488719 0.6427 0.6346 0.6241 0.6161 0.6086
2900.740977 0.6018 0.5953 0.5872 0.5787 0.5644
2907.993235 0.5484 0.5395 0.5326 0.5144 0.4930
2915.245493 0.4709 0.4485 0.4212 0.3924 0.3428
2922.497751 0.2861 0.2487 0.2184 0.2100 0.2100
2929.750009 0.2338 0.2671 0.2848 0.2967 0.3137
2937.002267 0.3326 0.3536 0.3755 0.3998 0.4252
2944.254525 0.4720 0.5282 0.5688 0.6021 0.6237
2951.506783 0.6396 0.6569 0.6748 0.6911 0.7065
2958.759041 0.7165 0.7236 0.7260 0.7260 0.7270
2966.011299 0.7285 0.7277 0.7257 0.7212 0.7153
2973.263557 0.7053 0.6928 0.6850 0.6800 0.6732
2980.515815 0.6652 0.6573 0.6493 0.6405 0.6310
2987.768073 0.6201 0.6079 0.5965 0.5856 0.5767
2995.020331 0.5692 0.5651 0.5637 0.5619 0.5599
3002.272589 0.5579 0.5559 0.5537 0.5512 0.5466
3009.524847 0.5401 0.5334 0.5264 0.5199 0.5140
3016.777105 0.5092 0.5057 0.5022 0.4987 0.5036
3024.029363 0.5165 0.5297 0.5432 0.5624 0.5878
3031.281621 0.6079 0.6224 0.6300 0.6300 0.6282
3038.533879 0.6242 0.6220 0.6220 0.6222 0.6227
3045.786137 0.6239 0.6259 0.6290 0.6335 0.6399
3053.038395 0.6489 0.6589 0.6704 0.6864 0.7088
3060.290653 0.7271 0.7395 0.7510 0.7609 0.7709
3067.542911 0.7808 0.7900 0.7980 0.8059 0.8139
3074.795169 0.8212 0.8272 0.8318 0.8337 0.8356
3082.047427 0.8370 0.8384 0.8394 0.8384 0.8340
3089.299685 0.8310 0.8310 0.8321 0.8356 0.8396
3096.551943 0.8446 0.8488 0.8513 0.8534 0.8549
3103.804201 0.8564 0.8580 0.8602 0.8642 0.8682
3111.056459 0.8722 0.8756 0.8776 0.8796 0.8815
3118.308717 0.8838 0.8868 0.8890 0.8890 0.8883
3125.560975 0.8853 0.8826 0.8812 0.8797 0.8782
3132.813233 0.8773 0.8788 0.8802 0.8812 0.8823
3140.065491 0.8838 0.8853 0.8868 0.8880 0.8880
3147.317749 0.8882 0.8892 0.8903 0.8918 0.8932
3154.570007 0.8942 0.8951 0.8956 0.8960 0.8960
3161.822265 0.8961 0.8972 0.8981 0.8986 0.8992
3169.074523 0.9002 0.9012 0.9027 0.9041 0.9046
3176.326781 0.9050 0.9050 0.9050 0.9050 0.9050
3183.579039 0.9050 0.9051 0.9066 0.9080 0.9080
3190.831297 0.9080 0.9080 0.9080 0.9080 0.9080
3198.083555 0.9080 0.9080 0.9080 0.9079 0.9064
3205.335813 0.9049 0.9034 0.9020 0.9020 0.9020
3212.588071 0.9015 0.9010 0.9010 0.9010 0.9010
3219.840329 0.9010 0.9010 0.9010 0.9000 0.8990
3227.092587 0.8990 0.8990 0.8990 0.8990 0.8975
3234.344845 0.8960 0.8955 0.8950 0.8940 0.8930
3241.597103 0.8930 0.8930 0.8939 0.8949 0.8978
3248.849361 0.9008 0.9010 0.9010 0.9010 0.9010
3256.101619 0.9001 0.8991 0.8990 0.8990 0.8990
3263.353877 0.8990 0.8985 0.8980 0.8984 0.8989
3270.606135 0.8990 0.8990 0.8990 0.8990 0.8986
3277.858393 0.8981 0.8971 0.8961 0.8960 0.8960
3285.110651 0.8960 0.8960 0.8956 0.8951 0.8950
3292.362909 0.8950 0.8942 0.8932 0.8930 0.8930
3299.615167 0.8926 0.8921 0.8920 0.8920 0.8920
3306.867425 0.8920 0.8920 0.8920 0.8920 0.8920
3314.119683 0.8920 0.8920 0.8912 0.8902 0.8900
3321.371941 0.8900 0.8900 0.8900 0.8900 0.8900
3328.624199 0.8907 0.8917 0.8931 0.8946 0.8961
3335.876457 0.8976 0.8980 0.8980 0.8980 0.8980
3343.128715 0.8973 0.8963 0.8960 0.8960 0.8956
3350.380973 0.8952 0.8950 0.8950 0.8950 0.8950
3357.633231 0.8943 0.8933 0.8930 0.8930 0.8930
3364.885489 0.8930 0.8927 0.8922 0.8920 0.8920
3372.137747 0.8923 0.8928 0.8930 0.8930 0.8930
3379.390005 0.8930 0.8930 0.8930 0.8930 0.8930
3386.642263 0.8930 0.8930 0.8930 0.8930 0.8930
3393.894521 0.8930 0.8930 0.8930 0.8936 0.8946
3401.146779 0.8950 0.8950 0.8950 0.8950 0.8944
3408.399037 0.8934 0.8930 0.8930 0.8930 0.8930
3415.651295 0.8922 0.8907 0.8900 0.8900 0.8895
3422.903553 0.8885 0.8880 0.8880 0.8880 0.8880
3430.155811 0.8883 0.8888 0.8898 0.8912 0.8930
3437.408069 0.8950 0.8965 0.8975 0.8968 0.8943
3444.660327 0.8921 0.8901 0.8888 0.8883 0.8880
3451.912585 0.8880 0.8876 0.8865 0.8865 0.8874
3459.164843 0.8889 0.8909 0.8926 0.8941 0.8958
3466.417101 0.8978 0.8990 0.8990 0.8994 0.9004
3473.669359 0.9010 0.9010 0.9006 0.8996 0.8990
3480.921617 0.8990 0.8979 0.8949 0.8920 0.8896
3488.173875 0.8876 0.8866 0.8855 0.8840 0.8830
3495.426133 0.8830 0.8835 0.8850 0.8870 0.8900
3502.678391 0.8925 0.8940 0.8950 0.8950 0.8950
3509.930649 0.8950 0.8951 0.8957 0.8960 0.8960
3517.182907 0.8958 0.8954 0.8947 0.8937 0.8929
3524.435165 0.8924 0.8917 0.8907 0.8900 0.8900
3531.687423 0.8899 0.8894 0.8891 0.8896 0.8900
3538.939681 0.8900 0.8902 0.8912 0.8920 0.8920
3546.191939 0.8920 0.8920 0.8920 0.8920 0.8920
3553.444197 0.8920 0.8920 0.8920 0.8920 0.8920
3560.696455 0.8920 0.8920 0.8920 0.8920 0.8921
3567.948713 0.8926 0.8932 0.8942 0.8950 0.8950
3575.200971 0.8951 0.8956 0.8960 0.8960 0.8960
3582.453229 0.8960 0.8960 0.8960 0.8960 0.8960
3589.705487 0.8959 0.8954 0.8950 0.8950 0.8949
3596.957745 0.8939 0.8930 0.8930 0.8930 0.8925
3604.210003 0.8920 0.8920 0.8920 0.8920 0.8920
3611.462261 0.8920 0.8919 0.8909 0.8900 0.8900
3618.714520 0.8900 0.8900 0.8900 0.8910 0.8920
3625.966778 0.8920 0.8920 0.8925 0.8930 0.8930
3633.219036 0.8930 0.8930 0.8930 0.8940 0.8950
3640.471294 0.8950 0.8950 0.8955 0.8960 0.8960
3647.723552 0.8960 0.8960 0.8960 0.8955 0.8950
3654.975810 0.8950 0.8950 0.8950 0.8950 0.8950
3662.228068 0.8950 0.8941 0.8931 0.8930 0.8930
3669.480326 0.8930 0.8930 0.8939 0.8949 0.8955
3676.732584 0.8959 0.8969 0.8979 0.8984 0.8989
3683.984842 0.8999 0.9009 0.9010 0.9010 0.9014
3691.237100 0.9019 0.9020 0.9020 0.9007 0.8992
3698.489358 0.8990 0.8990 0.8990 0.8990 0.9002
3705.741616 0.9017 0.9020 0.9020 0.9036 0.9056
3712.993874 0.9068 0.9078 0.9084 0.9089 0.9074
3720.246132 0.9054 0.9046 0.9041 0.9032 0.9022
3727.498390 0.9032 0.9047 0.9050 0.9050 0.9061
3734.750648 0.9076 0.9080 0.9080 0.9091 0.9106
3742.002906 0.9110 0.9110 0.9110 0.9110 0.9103
3749.255164 0.9093 0.9086 0.9081 0.9084 0.9089
3756.507422 0.9090 0.9090 0.9086 0.9082 0.9080
3763.759680 0.9080 0.9073 0.9063 0.9060 0.9060
3771.011938 0.9057 0.9052 0.9050 0.9050 0.9047
3778.264196 0.9042 0.9040 0.9040 0.9040 0.9040
3785.516454 0.9043 0.9048 0.9050 0.9050 0.9053
3792.768712 0.9058 0.9060 0.9060 0.9066 0.9076
3800.020970 0.9080 0.9080 0.9083 0.9088 0.9090
3807.273228 0.9090 0.9090 0.9090 0.9087 0.9082
3814.525486 0.9080 0.9080 0.9074 0.9064 0.9060
3821.777744 0.9060 0.9057 0.9052 0.9047 0.9042
3829.030002 0.9032 0.9017 0.9010 0.9010 0.9013
3836.282260 0.9018 0.9025 0.9035 0.9045 0.9055
3843.534518 0.9065 0.9075 0.9080 0.9080 0.9082
3850.786776 0.9087 0.9090 0.9090 0.9083 0.9068
3858.039034 0.9060 0.9060 0.9060 0.9060 0.9058
3865.291292 0.9053 0.9050 0.9050 0.9048 0.9043
3872.543550 0.9040 0.9040 0.9036 0.9026 0.9024
3879.795808 0.9034 0.9040 0.9040 0.9036 0.9026
3887.048066 0.9020 0.9020 0.9020 0.9020 0.9020
3894.300324 0.9020 0.9020 0.9020 0.9020 0.9020
3901.552582 0.9018 0.9013 0.9010 0.9010 0.9005
3908.804840 0.8990 0.8980 0.8980 0.8980 0.8980
3916.057098 0.8982 0.8987 0.8993 0.9003 0.9016
3923.309356 0.9036 0.9050 0.9050 0.9044 0.9024
3930.561614 0.9007 0.8997 0.8986 0.8971 0.8960
3937.813872 0.8960 0.8959 0.8954 0.8950 0.8950
3945.066130 0.8951 0.8956 0.8962 0.8972 0.8981
3952.318388 0.8986 0.8992 0.9002 0.9011 0.9016
3959.570646 0.9020 0.9020 0.9019 0.9014 0.9008
3966.822904 0.8998 0.8989 0.8984 0.8977 0.8962
3974.075162 0.8950 0.8950 0.8951 0.8956 0.8964
3981.327420 0.8989 0.9011 0.9016 0.9020 0.9020
3988.579678 0.9020 0.9020 0.9020 0.9020 0.9018
3995.831936 0.9003 0.8990 0.8990
##END=
