##TITLE=multiline datasets test
##JCAMP-DX=5.01
##DATATYPE=INFRARED SPECTRUM
##ORIGIN=Origin test
##OWNER=Owner test
##LONGDATE=2020/06/16
##TIME=10:11:29
##SPECTROMETER/DATA SYSTEM=Test Spectrometer
##DATA PROCESSING=
Ratio against background
Truncated
ElementMultiply or ElementDivide
##COMMENTS=
Number of sample scans: 32
Collection length: 13,08 sec
Sample gain: 1,0
Background collected on: Mar 16 08:58:24 2020 (GMT+02:00)
Number of background scans: 32
Background gain: 1,0
Sample spacing:  1,000
Number of scan points: 2336
Resolution points: 1024
Number of FFT points: 8192
Apodization: N-B fort;
Phase correction: Mertz;
Laser frequency: 15798,26 cm-1
Number of rejected sample scans: 0
Number of rejected background scans: 0
Bench serial number: BGD202006;
##RESOLUTION=32.000
##XUNITS=1/CM
##YUNITS=TRANSMITTANCE
##FIRSTX=401.127686
##LASTX=7798.848633
##FIRSTY=1.014020
##MAXX=7798.848633
##MINX=401.127686
##MAXY=1.019141
##MINY=0.948091
##XFACTOR=1.000000
##YFACTOR=1.000000E-008
##NPOINTS=1919
##DELTAX=3.856997
##ZPD=1024
##XYDATA=(X++(Y..Y))
401.128 101402024 101163144 100959584 100752936 100539768 100339632
424.270 100176944 100066888 100008664 99985040 99973600 99953352 99915760
451.269 99866320 99820712 99795616 99799960 99829800 99872880 99915008
478.268 99948296 99973480 99997424 100026384 100061952 100098992 100129256
505.267 100145488 100146400 100137368 100127552 100125000 100132384
528.409 100145504 100156464 100157632 100145792 100123200 100096472
551.550 100072456 100055264 100044056 100034992 100023424 100007832 99990544
578.549 99977104 99972608 99979384 99994688 100012160 100024120 100025488
605.548 100015488 99997344 99975544 99953264 99930152 99903056 99867208
632.547 99819456 99759488 99690488 99617224 99544568 99475408 99410808
659.546 99351104 99298200 99256936 99234784 99239184 99274264 99338248
686.545 99423520 99519304 99615360 99704256 99782432 99849120 99905136
713.544 99951304 99988024 100015656 100035176 100048400 100057944 100066144
740.543 100074088 100081312 100086008 100086336 100081768 100073576
763.685 100064536 100057752 100055264 100057184 100061816 100066568
786.827 100069336 100069280 100067288 100065040 100064024 100064760
809.969 100066480 100067808 100067688 100065840 100063072 100060488
833.111 100058840 100057856 100056504 100053368 100047720 100039848
856.253 100031088 100023080 100017048 100012984 100010000 100006520
879.395 100001464 99994624 99986880 99979464 99973592 99969552 99966840
906.394 99964696 99962576 99960576 99959416 99959912 99962216 99965688
933.393 99968960 99970504 99969496 99966288 99962200 99958960 99957976
960.392 99959560 99963000 99966776 99969552 99970688 99970336 99969256
987.391 99968048 99966944 99965632 99963448 99960320 99956664 99953576
1014.390 99952120 99952832 99955312 99958352 99960544 99961104 99960176
1041.389 99958920 99958528 99960048 99963352 99967640 99971552 99974264
1068.388 99975736 99976712 99978144 99980536 99983392 99985520 99985568
1095.388 99982896 99977848 99971808 99966376 99962768 99961288 99961376
1122.387 99961904 99962160 99962000 99962064 99963216 99966104 99970688
1149.387 99976256 99981880 99986912 99991312 99995576 100000320 100005736
1176.386 100011400 100016152 100018776 100018584 100015616 100010848
1199.528 100005552 100000904 99997312 99994496 99991680 99988064 99983264
1226.528 99977520 99971488 99965816 99960792 99956256 99951792 99947040
1253.527 99942088 99937448 99933984 99932408 99932848 99934736 99937040
1280.526 99938656 99938792 99937232 99934208 99930136 99925352 99919992
1307.526 99914032 99907520 99900760 99894264 99888656 99884360 99881152
1334.525 99878272 99874664 99869368 99861944 99852520 99841752 99830432
1361.525 99819040 99807632 99795896 99783512 99770592 99757808 99746280
1388.524 99737184 99731000 99727456 99725456 99723528 99720776 99716992
1415.523 99713016 99709904 99708480 99708544 99708736 99707080 99701576
1442.523 99691080 99675640 99656664 99636584 99618200 99603776 99593960
1469.522 99587584 99582168 99574720 99562440 99543136 99515312 99478256
1496.522 99432304 99379200 99322360 99266808 99218296 99181680 99159520
1523.521 99151472 99154896 99166592 99184144 99206608 99234472 99269024
1550.520 99311272 99361184 99417448 99477728 99539296 99599312 99655112
1577.520 99704200 99744456 99774296 99792880 99800096 99796688 99784104
1604.519 99764376 99739840 99712840 99685120 99657744 99630832 99604256
1631.519 99578016 99552952 99530568 99512704 99500520 99493704 99490312
1658.518 99487424 99482264 99472984 99458968 99440824 99420072 99399040
1685.517 99380584 99367672 99363056 99368480 99383920 99407376 99435136
1712.517 99462688 99485800 99501432 99508280 99506936 99499984 99491624
1739.516 99486576 99488856 99500256 99520072 99545408 99572696 99598520
1766.516 99620648 99638040 99650960 99660632 99668776 99677240 99687640
1793.515 99700744 99716552 99734160 99752000 99768192 99781192 99789960
1820.514 99794400 99795344 99794440 99793768 99795184 99799640 99806920
1847.514 99815888 99825032 99833072 99839488 99844520 99849104 99854168
1874.513 99860296 99867320 99874416 99880384 99884216 99885432 99884232
1901.512 99881536 99878512 99876224 99875392 99876200 99878392 99881512
1928.512 99885152 99889024 99892984 99897000 99901104 99905152 99909144
1955.511 99912976 99916592 99919920 99922848 99925184 99926768 99927520
1982.511 99927592 99927288 99927152 99927656 99929120 99931448 99934280
2009.510 99937080 99939480 99941240 99942552 99943672 99944936 99946392
2036.509 99947888 99949112 99949784 99949792 99949448 99949144 99949336
2063.508 99950248 99951792 99953688 99955504 99957072 99958352 99959576
2090.507 99961032 99962784 99964752 99966608 99968024 99968864 99969224
2117.505 99969376 99969680 99970280 99971104 99971872 99972272 99972160
2144.504 99971648 99971160 99971048 99971560 99972624 99973960 99975152
2171.502 99975896 99976176 99976176 99976160 99976336 99976696 99977024
2198.501 99977096 99976808 99976256 99975664 99975240 99974864 99974032
2225.500 99971928 99967648 99960416 99949880 99936200 99919968 99902040
2252.498 99883360 99864568 99845936 99826752 99805112 99777584 99739168
2279.497 99683600 99604128 99494344 99349032 99164672 98939576 98673256
2306.495 98366024 98018648 97633104 97215224 96777840 96342704 95937480
2333.494 95586272 95299936 95075264 94907392 94809136 94824688 95020008
2360.492 95440192 96059288 96780360 97491936 98120048 98636728 99043688
2387.491 99354512 99585064 99749824 99861544 99931952 99972136 99992232
2414.489 100000808 100003944 100005232 100006120 100006800 100007200
2437.631 100007336 100007488 100007968 100008880 100010072 100011288
2460.772 100012256 100012984 100013648 100014536 100015768 100017256
2483.914 100018736 100019840 100020304 100020176 100019624 100018920
2507.056 100018264 100017680 100017144 100016568 100016000 100015576
2530.197 100015560 100016112 100017272 100018848 100020536 100022064
2553.339 100023296 100024240 100025024 100025808 100026640 100027400
2576.480 100027864 100027888 100027408 100026584 100025648 100024840
2599.622 100024344 100024128 100024136 100024264 100024520 100024944
2622.764 100025704 100026832 100028360 100030072 100031744 100033176
2645.905 100034264 100034992 100035496 100035816 100036064 100036168
2669.047 100036112 100035872 100035568 100035368 100035520 100036152
2692.188 100037320 100038816 100040456 100041936 100043080 100043832
2715.330 100044264 100044424 100044464 100044344 100044128 100043784
2738.472 100043384 100042960 100042688 100042632 100042816 100043232
2761.613 100043736 100044312 100044888 100045528 100046216 100047008
2784.755 100047872 100048760 100049592 100050296 100050912 100051416
2807.896 100051904 100052352 100052728 100052944 100052952 100052680
2831.038 100052168 100051472 100050672 100049824 100048960 100048040
2854.180 100047136 100046280 100045600 100045184 100045136 100045408
2877.321 100045880 100046432 100046872 100047160 100047288 100047368
2900.463 100047496 100047680 100048008 100048352 100048664 100048912
2923.604 100049144 100049352 100049672 100049984 100050200 100050128
2946.746 100049656 100048760 100047552 100046288 100045248 100044720
2969.888 100044888 100045736 100047216 100049168 100051440 100053808
2993.029 100056168 100058344 100060232 100061816 100063064 100064128
3016.171 100065184 100066352 100067776 100069464 100071272 100073032
3039.313 100074512 100075576 100076280 100076696 100077016 100077344
3062.454 100077816 100078392 100079000 100079536 100079856 100079896
3085.596 100079584 100078896 100077880 100076640 100075296 100074088
3108.737 100073312 100073216 100074024 100075768 100078472 100081912
3131.879 100085816 100089880 100093776 100097240 100100088 100102168
3155.021 100103440 100103904 100103720 100103032 100102112 100101136
3178.162 100100232 100099432 100098720 100097976 100097152 100096216
3201.304 100095200 100094176 100093248 100092464 100091808 100091320
3224.445 100090920 100090600 100090384 100090240 100090192 100090176
3247.587 100090176 100090064 100089800 100089368 100088816 100088208
3270.729 100087680 100087320 100087200 100087336 100087712 100088264
3293.870 100088904 100089536 100090096 100090512 100090816 100091040
3317.012 100091320 100091784 100092464 100093376 100094328 100095112
3340.153 100095536 100095408 100094760 100093720 100092576 100091552
3363.295 100090808 100090304 100089984 100089584 100089016 100088144
3386.437 100087080 100085952 100084896 100083968 100083136 100082160
3409.578 100080920 100079224 100077040 100074456 100071648 100068752
3432.720 100065968 100063528 100061512 100060056 100059232 100058952
3455.861 100059056 100059216 100058896 100057560 100054808 100050440
3479.003 100044440 100037192 100029208 100020968 100012792 100004864
3502.145 99997104 99989384 99981720 99974160 99966888 99960008 99953384
3529.143 99946608 99938976 99929696 99918192 99904336 99888496 99871440
3556.142 99854072 99836928 99820008 99802576 99783448 99761408 99735616
3583.140 99706048 99673336 99638712 99603880 99570648 99540800 99516232
3610.139 99498624 99489296 99488896 99497280 99513464 99536040 99563344
3637.137 99593536 99624544 99653968 99679336 99698184 99708592 99709440
3664.136 99700608 99683184 99659504 99632808 99606728 99584072 99566096
3691.134 99552080 99539760 99526096 99508072 99483280 99450360 99409312
3718.133 99361560 99310128 99259720 99217000 99190496 99189296 99220240
3745.131 99283680 99372040 99472200 99571240 99660248 99734840 99793832
3772.130 99837464 99866520 99881912 99884696 99876320 99858664 99834072
3799.128 99805288 99775032 99745584 99718480 99694376 99673256 99654872
3826.127 99639144 99626184 99616392 99609888 99606584 99606136 99608168
3853.125 99612616 99619776 99630072 99643640 99660024 99678136 99696536
3880.124 99714128 99730512 99746336 99762760 99781104 99801912 99824696
3907.123 99847888 99869472 99887768 99902048 99912608 99920832 99928456
3934.121 99937216 99948176 99961560 99976864 99993040 100009120 100024456
3961.120 100038632 100051688 100063552 100074256 100083744 100092056
3984.261 100099136 100105224 100110544 100115312 100119648 100123600
4007.403 100126968 100129784 100131896 100133512 100134864 100136200
4030.544 100137688 100139368 100141080 100142712 100144152 100145336
4053.686 100146416 100147416 100148376 100149136 100149608 100149680
4076.828 100149368 100148880 100148520 100148544 100149064 100149960
4099.969 100150952 100151760 100152160 100152208 100152144 100152160
4123.111 100152544 100153352 100154448 100155680 100156856 100157992
4146.252 100159072 100160360 100161808 100163376 100164864 100166072
4169.394 100166848 100167208 100167360 100167560 100168016 100168760
4192.536 100169664 100170496 100171104 100171400 100171536 100171688
4215.677 100172016 100172528 100173120 100173584 100173784 100173720
4238.819 100173552 100173520 100173736 100174296 100175080 100175832
4261.960 100176472 100176936 100177264 100177640 100178192 100178944
4285.102 100179760 100180528 100181056 100181432 100181744 100182200
4308.244 100182912 100183880 100184920 100185848 100186536 100187064
4331.385 100187432 100187920 100188680 100189608 100190472 100191032
4354.527 100191104 100190672 100189952 100189248 100188808 100188784
4377.668 100189064 100189472 100189808 100190064 100190304 100190776
4400.810 100191584 100192736 100194096 100195464 100196624 100197520
4423.952 100198272 100199128 100200208 100201584 100203064 100204424
4447.093 100205448 100206160 100206688 100207288 100208192 100209448
4470.235 100210888 100212312 100213408 100214088 100214448 100214640
4493.376 100214808 100215104 100215424 100215624 100215600 100215440
4516.518 100215320 100215552 100216280 100217480 100218952 100220320
4539.660 100221296 100221808 100221976 100222120 100222488 100223304
4562.801 100224424 100225640 100226696 100227520 100228120 100228712
4585.943 100229480 100230472 100231576 100232624 100233392 100233824
4609.084 100234032 100234264 100234712 100235496 100236512 100237568
4632.226 100238504 100239264 100239944 100240800 100241960 100243448
4655.368 100245096 100246688 100248024 100249088 100249968 100250960
4678.509 100252152 100253608 100255112 100256344 100257128 100257408
4701.651 100257360 100257336 100257600 100258256 100259248 100260376
4724.792 100261456 100262488 100263552 100264944 100266720 100268816
4747.934 100271000 100272800 100273944 100274368 100274232 100274000
4771.076 100273976 100274400 100275128 100276008 100276656 100277056
4794.217 100277288 100277648 100278408 100279728 100281480 100283432
4817.359 100285328 100287056 100288616 100290232 100292000 100293968
4840.500 100295888 100297512 100298584 100299160 100299384 100299688
4863.642 100300368 100301632 100303304 100305160 100306896 100308392
4886.784 100309696 100311048 100312664 100314584 100316640 100318608
4909.925 100320256 100321616 100322760 100323912 100325248 100326704
4933.067 100327984 100328720 100328656 100327936 100326848 100326064
4956.208 100325992 100326896 100328592 100330696 100332784 100334608
4979.350 100336200 100337816 100339696 100342024 100344592 100347096
5002.492 100349200 100350824 100351992 100353048 100354328 100355928
5025.633 100357736 100359432 100360720 100361464 100361824 100362032
5048.775 100362464 100363208 100364112 100364920 100365280 100365128
5071.917 100364592 100364096 100363944 100364264 100364936 100365640
5095.058 100366056 100366088 100365856 100365744 100366064 100366904
5118.200 100367952 100368672 100368496 100367096 100364408 100360888
5141.341 100356992 100353288 100349952 100347080 100344512 100342152
5164.483 100339952 100337920 100335968 100333928 100331432 100328080
5187.625 100323632 100318232 100312408 100306880 100302544 100299776
5210.766 100298584 100298520 100298760 100298672 100297824 100296104
5233.908 100293856 100291528 100289784 100289192 100290424 100294048
5257.049 100300264 100309016 100319624 100331056 100341984 100351376
5280.191 100358640 100363856 100367648 100370912 100374264 100377824
5303.333 100380720 100381552 100378696 100370976 100357928 100340200
5326.474 100319504 100298544 100280344 100267920 100263176 100266752
5349.616 100277400 100292840 100310096 100326520 100340016 100349576
5372.757 100355128 100357392 100357568 100356864 100356160 100355656
5395.899 100355128 100354112 100352160 100349272 100345720 100341944
5419.041 100338272 100334888 100331704 100328896 100326768 100326112
5442.182 100327680 100332176 100339528 100348952 100359072 100368560
5465.324 100376416 100382376 100386848 100390752 100394840 100399648
5488.465 100405184 100411120 100417136 100423216 100429496 100436320
5511.607 100443792 100451696 100459384 100466264 100471792 100476088
5534.749 100479504 100482752 100486376 100490592 100495160 100499584
5557.890 100503544 100507040 100510384 100514112 100518592 100523688
5581.032 100528896 100533520 100536984 100539232 100540592 100541728
5604.173 100543128 100545056 100547152 100548840 100549696 100549696
5627.315 100549112 100548696 100548976 100550064 100551712 100553320
5650.457 100554408 100554896 100555088 100555632 100556992 100559360
5673.598 100562248 100565048 100567120 100568264 100568728 100569112
5696.740 100570064 100571720 100573896 100576080 100577784 100578856
5719.881 100579576 100580464 100581952 100584152 100586568 100588536
5743.023 100589536 100589512 100588688 100587976 100587992 100588968
5766.165 100590608 100592256 100593280 100593416 100592872 100592312
5789.306 100592400 100593416 100595176 100597208 100598904 100600160
5812.448 100601040 100602080 100603760 100606112 100608768 100611152
5835.589 100612600 100613008 100612664 100612224 100612296 100613280
5858.731 100614824 100616440 100617576 100618064 100618128 100618256
5881.873 100619056 100620584 100622432 100623992 100624776 100624720
5905.014 100624120 100623872 100624592 100626552 100629320 100632328
5928.156 100634720 100636376 100637376 100638376 100639984 100642376
5951.297 100645184 100647776 100649536 100650192 100650008 100649688
5974.439 100649880 100650872 100652360 100653904 100654864 100655216
5997.581 100655128 100655328 100656360 100658352 100660848 100663168
6020.722 100664696 100665264 100665248 100665352 100666240 100668208
6043.864 100670840 100673464 100675408 100676464 100676904 100677488
6067.005 100678848 100681016 100683664 100685944 100687152 100687168
6090.147 100686344 100685648 100685792 100687216 100689552 100692056
6113.289 100693936 100694864 100694928 100694912 100695440 100696728
6136.430 100698536 100700208 100701096 100701080 100700512 100700208
6159.572 100700848 100702752 100705448 100708136 100710128 100711168
6182.713 100711512 100712080 100713752 100716720 100720664 100724832
6205.855 100728288 100730656 100732040 100733120 100734544 100736680
6228.997 100739136 100741328 100742552 100742744 100742208 100741912
6252.138 100742656 100744776 100748024 100751544 100754544 100756712
6275.280 100758112 100759328 100760944 100763064 100765216 100766800
6298.421 100767088 100766208 100764672 100763536 100763664 100765400
6321.563 100768152 100771000 100772968 100773608 100773216 100772632
6344.705 100772736 100774024 100776272 100778896 100781040 100782624
6367.846 100783816 100785320 100787888 100791416 100795424 100798976
6390.988 100801192 100801960 100801792 100801832 100802864 100805320
6414.129 100808648 100811912 100813992 100814632 100814072 100813256
6437.271 100813120 100813976 100815472 100816744 100816944 100815752
6460.413 100813800 100812104 100811768 100813336 100816384 100820136
6483.554 100823512 100826088 100827920 100829784 100832352 100835920
6506.696 100840000 100843664 100846224 100847448 100847768 100848240
6529.837 100849768 100852752 100856632 100860488 100863456 100865208
6552.979 100866112 100867184 100869304 100872552 100876488 100880032
6576.121 100882168 100882760 100882320 100882048 100883040 100885784
6599.262 100889760 100893928 100897168 100899288 100900608 100902352
6622.404 100905728 100910952 100917568 100924240 100929616 100932952
6645.545 100934424 100934808 100935240 100936216 100937616 100938664
6668.687 100938776 100937856 100936424 100935744 100936808 100939816
6691.829 100944224 100948736 100952208 100954232 100955344 100956616
6714.970 100959232 100963632 100969136 100974552 100978560 100980800
6738.112 100981312 100981352 100982072 100983984 100986824 100989640
6761.253 100991680 100992584 100992952 100993824 100996224 101000240
6784.395 101005088 101009472 101011992 101012480 101011528 101010536
6807.537 101011064 101013496 101017248 101021088 101023592 101024288
6830.678 101023648 101023016 101023784 101026664 101031240 101036200
6853.820 101040264 101042896 101044288 101045632 101048240 101052456
6876.961 101057672 101062536 101065704 101066576 101065504 101063848
6900.103 101063000 101063832 101066056 101068816 101070832 101071952
6923.245 101072336 101073280 101075872 101080304 101085960 101091304
6946.386 101095072 101096728 101096768 101096744 101097952 101101136
6969.528 101105776 101110712 101114632 101117112 101118536 101120224
6992.669 101123344 101128072 101133704 101138520 101141192 101141248
7015.811 101139384 101137184 101136384 101137688 101140472 101143280
7038.953 101144472 101143584 101141016 101138512 101138048 101140440
7062.094 101145488 101151696 101157392 101161424 101163648 101165128
7085.236 101166976 101169776 101173280 101176512 101178216 101177992
7108.377 101176344 101174736 101174592 101176472 101180080 101184168
7131.519 101187600 101189816 101191184 101192856 101195544 101199472
7154.661 101203808 101207184 101208880 101209152 101209240 101211224
7177.802 101216488 101224808 101234592 101243488 101249360 101251288
7200.944 101249968 101246872 101243744 101241048 101238168 101233696
7224.085 101226848 101218416 101210704 101206936 101209896 101219880
7247.227 101235032 101251840 101267016 101278640 101286672 101292480
7270.369 101297800 101303280 101308488 101311896 101312168 101309288
7293.510 101304736 101300856 101300192 101303280 101308648 101313568
7316.652 101315016 101311616 101304368 101296128 101290512 101290128
7339.793 101295432 101304968 101316024 101326712 101336184 101345040
7362.935 101354720 101365728 101378040 101390560 101402248 101412872
7386.077 101423336 101435032 101448944 101464976 101481312 101495760
7409.218 101505960 101511800 101514080 101515392 101518080 101522920
7432.360 101529312 101535392 101539136 101539488 101537616 101535200
7455.501 101534544 101536456 101540256 101544120 101546416 101546608
7478.643 101545880 101546520 101550656 101559200 101571040 101583480
7501.785 101594104 101601368 101605728 101609056 101613408 101619928
7524.926 101627968 101635952 101641880 101645328 101647160 101649776
7548.068 101655496 101664984 101677368 101690208 101700736 101707472
7571.209 101710832 101712528 101714704 101718432 101723504 101728072
7594.351 101730520 101730432 101728504 101727104 101728440 101732928
7617.493 101739824 101746624 101751152 101752344 101751304 101750248
7640.634 101751344 101755184 101760792 101765608 101767136 101765016
7663.776 101760480 101756840 101757416 101763256 101773544 101784992
7686.917 101794184 101798760 101799136 101797256 101796344 101798128
7710.059 101802480 101807464 101810856 101811152 101808872 101806384
7733.201 101806496 101810992 101819696 101830376 101840696 101848560
7756.342 101853816 101858096 101863504 101870664 101879520 101888096
7779.484 101894056 101897112 101898048 101899456 101904448 101914096
##END=
