##TITLE=METHYL IODIDE
##JCAMP-DX=4.24
##DATA TYPE=INFRARED SPECTRUM
##CLASS=COBLENTZ
##ORIGIN=DOW CHEMICAL COMPANY
##OWNER=COBLENTZ SOCIETY
Collection (C) 2009 copyright by the U.S. Secretary of Commerce
on behalf of the United States of America. All rights reserved.
##DATE=1964
##NAMES=iodomethane
##CAS REGISTRY NO=74-88-4
##MOLFORM=C H3 I
##SOURCE REFERENCE=COBLENTZ NO. 8845
##$NIST SOURCE=COBLENTZ
##$NIST IMAGE=cob8845
##SPECTROMETER/DATA SYSTEM=DOW KBr FOREPRISM
##INSTRUMENT PARAMETERS=GRATING CHANGED AT 5.0, 7.5, 15.0 MICRON
##STATE=GAS (200 mmHg DILUTED TO A TOTAL PRESSURE OF 600 mmHg WITH N2)
##PARTIAL_PRESSURE=200 mmHg
##PATH LENGTH=5 CM
##SAMPLING PROCEDURE=TRANSMISSION
##RESOLUTION=4
##DATA PROCESSING=DIGITIZED BY NIST FROM HARD COPY (FROM TWO SEGMENTS)
##XUNITS=1/CM
##YUNITS=TRANSMITTANCE
##XFACTOR=1.000000
##YFACTOR=1
##DELTAX=0.938676
##FIRSTX=455.882
##LASTX=3799.44
##FIRSTY=0.958
##MAXX=3799.44
##MINX=455.882
##MAXY=1.002
##MINY=0.046
##NPOINTS=3563
##XYDATA=(X++(Y..Y))
455.882000 0.9580 0.9580 0.9560 0.9560 0.9560
460.575378 0.9560 0.9560 0.9560 0.9560 0.9560
465.268755 0.9560 0.9580 0.9580 0.9560 0.9560
469.962133 0.9560 0.9560 0.9560 0.9560 0.9560
474.655510 0.9560 0.9560 0.9560 0.9560 0.9550
479.348888 0.9550 0.9550 0.9550 0.9530 0.9530
484.042265 0.9530 0.9520 0.9520 0.9520 0.9520
488.735643 0.9490 0.9490 0.9470 0.9460 0.9450
493.429021 0.9420 0.9400 0.9370 0.9340 0.9330
498.122398 0.9330 0.9320 0.9260 0.9200 0.9130
502.815776 0.9060 0.8980 0.8940 0.8930 0.8840
507.509153 0.8770 0.8710 0.8650 0.8541 0.8411
512.202531 0.8300 0.8170 0.8120 0.7990 0.7940
516.895908 0.7840 0.7770 0.7670 0.7600 0.7520
521.589286 0.7470 0.7450 0.7500 0.7540 0.7580
526.282664 0.7600 0.7610 0.7610 0.7610 0.7640
530.976041 0.7830 0.8560 0.8540 0.8231 0.7931
535.669419 0.7641 0.7351 0.7350 0.8604 0.8610
540.362796 0.8560 0.7741 0.7410 0.7250 0.7210
545.056174 0.7120 0.7090 0.7120 0.7180 0.7250
549.749551 0.7390 0.7450 0.7650 0.7909 0.8040
554.442929 0.8289 0.8489 0.8689 0.8929 0.9188
559.136307 0.9300 0.9400 0.9470 0.9530 0.9560
563.829684 0.9560 0.9560 0.9580 0.9580 0.9590
568.523062 0.9590 0.9600 0.9600 0.9600 0.9620
573.216439 0.9620 0.9620 0.9620 0.9620 0.9620
577.909817 0.9620 0.9620 0.9630 0.9620 0.9650
582.603194 0.9660 0.9660 0.9660 0.9660 0.9660
587.296572 0.9660 0.9660 0.9660 0.9650 0.9650
591.989950 0.9680 0.9680 0.9680 0.9690 0.9690
596.683327 0.9690 0.9710 0.9710 0.9720 0.9720
601.376705 0.9720 0.9720 0.9720 0.9720 0.9720
606.070082 0.9720 0.9720 0.9720 0.9720 0.9720
610.763460 0.9720 0.9720 0.9720 0.9720 0.9720
615.456837 0.9720 0.9720 0.9720 0.9730 0.9730
620.150215 0.9730 0.9730 0.9750 0.9750 0.9750
624.843593 0.9750 0.9750 0.9760 0.9760 0.9760
629.536970 0.9760 0.9780 0.9780 0.9780 0.9780
634.230348 0.9780 0.9780 0.9780 0.9780 0.9790
638.923725 0.9790 0.9790 0.9790 0.9790 0.9790
643.617103 0.9790 0.9790 0.9790 0.9790 0.9810
648.310480 0.9820 0.9820 0.9820 0.9820 0.9810
653.003858 0.9810 0.9810 0.9810 0.9810 0.9810
657.697236 0.9810 0.9810 0.9810 0.9810 0.9810
662.390613 0.9810 0.9810 0.9810 0.9810 0.9810
667.083991 0.9810 0.9820 0.9820 0.9820 0.9840
671.777368 0.9840 0.9840 0.9840 0.9840 0.9840
676.470746 0.9840 0.9840 0.9840 0.9840 0.9840
681.164124 0.9840 0.9840 0.9840 0.9840 0.9820
685.857501 0.9820 0.9820 0.9820 0.9820 0.9820
690.550879 0.9820 0.9820 0.9820 0.9820 0.9820
695.244256 0.9820 0.9820 0.9820 0.9820 0.9820
699.937634 0.9820 0.9820 0.9820 0.9820 0.9820
704.631011 0.9820 0.9820 0.9820 0.9820 0.9820
709.324389 0.9820 0.9820 0.9820 0.9820 0.9820
714.017767 0.9820 0.9840 0.9840 0.9840 0.9840
718.711144 0.9840 0.9840 0.9850 0.9850 0.9850
723.404522 0.9850 0.9850 0.9850 0.9840 0.9840
728.097899 0.9840 0.9840 0.9820 0.9840 0.9840
732.791277 0.9850 0.9850 0.9850 0.9850 0.9850
737.484654 0.9850 0.9850 0.9850 0.9850 0.9850
742.178032 0.9850 0.9850 0.9850 0.9850 0.9850
746.871410 0.9850 0.9850 0.9850 0.9860 0.9860
751.564787 0.9860 0.9860 0.9860 0.9860 0.9860
756.258165 0.9860 0.9850 0.9850 0.9850 0.9850
760.951542 0.9860 0.9860 0.9860 0.9850 0.9850
765.644920 0.9840 0.9840 0.9820 0.9820 0.9820
770.338297 0.9820 0.9820 0.9820 0.9820 0.9820
775.031675 0.9810 0.9810 0.9810 0.9810 0.9810
779.725053 0.9790 0.9790 0.9790 0.9780 0.9780
784.418430 0.9760 0.9760 0.9750 0.9750 0.9730
789.111808 0.9730 0.9730 0.9720 0.9690 0.9680
793.805185 0.9680 0.9680 0.9650 0.9590 0.9580
798.498563 0.9550 0.9590 0.9590 0.9580 0.9550
803.191940 0.9500 0.9470 0.9450 0.9430 0.9420
807.885318 0.9460 0.9420 0.9370 0.9330 0.9260
812.578696 0.9170 0.9130 0.9130 0.9330 0.9330
817.272073 0.9330 0.9320 0.9200 0.8174 0.7742
821.965451 0.7740 0.8670 0.9170 0.9160 0.9010
826.658828 0.8721 0.8232 0.8220 0.8937 0.8930
831.352206 0.8820 0.8670 0.8480 0.8041 0.7541
836.045583 0.7540 0.8576 0.8580 0.8560 0.8301
840.738961 0.5520 0.5521 0.8509 0.8510 0.8510
845.432339 0.8410 0.8380 0.8151 0.7263 0.6762
850.125716 0.6180 0.6180 0.8189 0.8190 0.7811
854.819094 0.7411 0.7350 0.5526 0.5520 0.7959
859.512471 0.7990 0.7970 0.7840 0.6252 0.3166
864.205849 0.3160 0.7955 0.8040 0.8030 0.8000
868.899226 0.8000 0.6770 0.4392 0.4390 0.7244
873.592604 0.7629 0.7640 0.7610 0.7391 0.6873
878.285982 0.3950 0.3951 0.7029 0.7670 0.7680
882.979359 0.7670 0.7381 0.2486 0.2470 0.5029
887.672737 0.6341 0.7600 0.7610 0.7610 0.7520
892.366114 0.6472 0.3887 0.3880 0.4069 0.7305
897.059492 0.7420 0.7500 0.7500 0.6322 0.6729
901.752869 0.4017 0.4010 0.7328 0.7728 0.7760
906.446247 0.7760 0.7760 0.2975 0.2970 0.7949
911.139625 0.7960 0.7781 0.7770 0.7770 0.7601
915.833002 0.6898 0.5360 0.5100 0.5100 0.6568
920.526380 0.7897 0.7930 0.7960 0.7472 0.6932
925.219757 0.5780 0.5780 0.7119 0.8479 0.8510
929.913135 0.8360 0.6416 0.5154 0.5150 0.6962
934.606512 0.8770 0.8810 0.8750 0.8640 0.8281
939.299890 0.7971 0.7940 0.7093 0.7090 0.8672
943.993268 0.8740 0.8800 0.8800 0.8740 0.8221
948.686645 0.8040 0.8040 0.8319 0.9127 0.9210
953.380023 0.9210 0.9190 0.8590 0.8260 0.8060
958.073400 0.7830 0.7830 0.8677 0.9357 0.9450
962.766778 0.9330 0.9240 0.9110 0.9100 0.9110
967.460155 0.9290 0.9430 0.9460 0.9490 0.9490
972.153533 0.9500 0.9520 0.9530 0.9560 0.9590
976.846911 0.9650 0.9660 0.9660 0.9660 0.9560
981.540288 0.9580 0.9720 0.9760 0.9790 0.9790
986.233666 0.9810 0.9810 0.9810 0.9810 0.9760
990.927043 0.9780 0.9840 0.9860 0.9880 0.9880
995.620421 0.9880 0.9880 0.9890 0.9890 0.9890
1000.313798 0.9910 0.9920 0.9940 0.9940 0.9920
1005.007176 0.9920 0.9920 0.9920 0.9920 0.9920
1009.700554 0.9940 0.9950 0.9970 0.9950 0.9940
1014.393931 0.9920 0.9920 0.9920 0.9920 0.9920
1019.087309 0.9940 0.9970 0.9980 0.9970 0.9950
1023.780686 0.9940 0.9920 0.9920 0.9920 0.9910
1028.474064 0.9910 0.9910 0.9890 0.9890 0.9890
1033.167441 0.9910 0.9910 0.9910 0.9910 0.9910
1037.860819 0.9920 0.9920 0.9910 0.9890 0.9880
1042.554197 0.9860 0.9880 0.9860 0.9860 0.9860
1047.247574 0.9860 0.9860 0.9860 0.9850 0.9840
1051.940952 0.9850 0.9860 0.9880 0.9890 0.9890
1056.634329 0.9890 0.9890 0.9890 0.9910 0.9910
1061.327707 0.9910 0.9910 0.9880 0.9840 0.9810
1066.021085 0.9790 0.9790 0.9780 0.9780 0.9780
1070.714462 0.9780 0.9780 0.9790 0.9910 0.9920
1075.407840 0.9920 0.9940 0.9970 0.9980 1.0010
1080.101217 1.0020 1.0020 1.0020 1.0020 1.0010
1084.794595 1.0010 1.0010 1.0010 1.0010 1.0000
1089.487972 1.0000 1.0000 1.0010 1.0010 1.0010
1094.181350 1.0000 1.0000 0.9980 0.9970 0.9970
1098.874728 0.9950 0.9950 0.9940 0.9920 0.9910
1103.568105 0.9890 0.9880 0.9880 0.9860 0.9850
1108.261483 0.9840 0.9840 0.9840 0.9840 0.9820
1112.954860 0.9820 0.9810 0.9810 0.9810 0.9810
1117.648238 0.9810 0.9820 0.9820 0.9850 0.9880
1122.341615 0.9910 0.9920 0.9920 0.9940 0.9940
1127.034993 0.9940 0.9940 0.9940 0.9940 0.9940
1131.728371 0.9940 0.9920 0.9920 0.9910 0.9890
1136.421748 0.9880 0.9880 0.9860 0.9860 0.9860
1141.115126 0.9850 0.9850 0.9850 0.9860 0.9850
1145.808503 0.9850 0.9850 0.9850 0.9860 0.9860
1150.501881 0.9860 0.9850 0.9820 0.9810 0.9810
1155.195258 0.9790 0.9780 0.9760 0.9750 0.9730
1159.888636 0.9730 0.9730 0.9750 0.9750 0.9760
1164.582014 0.9780 0.9780 0.9780 0.9790 0.9790
1169.275391 0.9790 0.9790 0.9790 0.9780 0.9780
1173.968769 0.9780 0.9780 0.9780 0.9760 0.9750
1178.662146 0.9760 0.9780 0.9820 0.9840 0.9860
1183.355524 0.9890 0.9910 0.9920 0.9920 0.9920
1188.048901 0.9920 0.9920 0.9910 0.9910 0.9890
1192.742279 0.9890 0.9880 0.9880 0.9880 0.9860
1197.435657 0.9860 0.9860 0.9840 0.9810 0.9780
1202.129034 0.9730 0.9710 0.9680 0.9600 0.9580
1206.822412 0.9550 0.9460 0.9400 0.9210 0.9100
1211.515789 0.8910 0.8710 0.8540 0.8331 0.8121
1216.209167 0.7770 0.7450 0.7310 0.6860 0.6470
1220.902544 0.6021 0.5591 0.5201 0.4851 0.4073
1225.595922 0.3769 0.3279 0.2740 0.2520 0.2210
1230.289300 0.1691 0.1380 0.1240 0.1150 0.1080
1234.982677 0.1010 0.0920 0.0910 0.0860 0.0820
1239.676055 0.0780 0.0730 0.0720 0.0730 0.0820
1244.369432 0.1060 0.1300 0.1481 0.4359 0.4390
1249.062810 0.4370 0.3951 0.3481 0.1536 0.1530
1253.756187 0.2450 0.2410 0.1870 0.1320 0.1060
1258.449565 0.0800 0.0630 0.0470 0.0460 0.0460
1263.142943 0.0470 0.0500 0.0590 0.0670 0.0760
1267.836320 0.0790 0.1509 0.2358 0.3028 0.3070
1272.529698 0.3521 0.4041 0.4491 0.5370 0.6110
1277.223075 0.7089 0.7409 0.7969 0.8678 0.9168
1281.916453 0.9520 0.9590 0.9600 0.9600 0.9600
1286.609830 0.9500 0.9500 0.9620 0.9650 0.9690
1291.303208 0.9690 0.9680 0.9680 0.9680 0.9680
1295.996586 0.9660 0.9600 0.9500 0.9490 0.9520
1300.689963 0.9530 0.9580 0.9600 0.9620 0.9620
1305.383341 0.9620 0.9620 0.9620 0.9590 0.9490
1310.076718 0.9430 0.9210 0.9210 0.9320 0.9330
1314.770096 0.9390 0.9390 0.9390 0.9390 0.9450
1319.463473 0.9530 0.9550 0.9550 0.8950 0.8720
1324.156851 0.8720 0.9229 0.9370 0.9400 0.9420
1328.850229 0.9420 0.9420 0.9450 0.9470 0.9530
1333.543606 0.9530 0.9500 0.9400 0.9111 0.8283
1338.236984 0.8282 0.9300 0.9270 0.9190 0.9160
1342.930361 0.9140 0.9130 0.9130 0.9100 0.9010
1347.623739 0.7760 0.7762 0.8980 0.8970 0.8940
1352.317116 0.8930 0.8940 0.8910 0.8850 0.8740
1357.010494 0.8577 0.6470 0.6471 0.8909 0.8940
1361.703872 0.8940 0.8910 0.8720 0.8541 0.8430
1366.397249 0.8190 0.8020 0.7990 0.7610 0.7610
1371.090627 0.8588 0.8540 0.8510 0.8361 0.8161
1375.784004 0.7868 0.6870 0.6870 0.7310 0.7680
1380.477382 0.7990 0.8320 0.7971 0.7631 0.7221
1385.170759 0.7000 0.6970 0.6970 0.7680 0.6661
1389.864137 0.6660 0.8197 0.8130 0.7771 0.7730
1394.557515 0.7731 0.8120 0.8120 0.8120 0.6871
1399.250892 0.6221 0.4853 0.4850 0.7671 0.8128
1403.944270 0.8150 0.8130 0.8030 0.8020 0.7970
1408.637647 0.7870 0.4464 0.3102 0.3100 0.8414
1413.331025 0.8430 0.8380 0.8230 0.8160 0.8020
1418.024402 0.7770 0.7680 0.7860 0.7860 0.6096
1422.717780 0.4600 0.4604 0.7670 0.7840 0.7870
1427.411158 0.8020 0.8020 0.7960 0.7870 0.7840
1432.104535 0.7780 0.7697 0.4470 0.4470 0.7757
1436.797913 0.7840 0.7860 0.7990 0.8030 0.7701
1441.491290 0.7701 0.8130 0.8130 0.8028 0.4160
1446.184668 0.2961 0.2960 0.7182 0.7998 0.7990
1450.878045 0.7970 0.7940 0.7840 0.7810 0.7700
1455.571423 0.7930 0.7770 0.7540 0.4698 0.4690
1460.264801 0.7960 0.7960 0.7940 0.7900 0.7610
1464.958178 0.7610 0.7770 0.7830 0.7870 0.7830
1469.651556 0.6897 0.5023 0.7520 0.7860 0.7940
1474.344933 0.7960 0.8120 0.8230 0.8230 0.8250
1479.038311 0.8490 0.8283 0.4429 0.4000 0.4000
1483.731689 0.8168 0.8130 0.8120 0.8060 0.7910
1488.425066 0.7890 0.7890 0.7970 0.8040 0.8040
1493.118444 0.5562 0.5560 0.8195 0.8200 0.7911
1497.811821 0.7910 0.8030 0.8160 0.8280 0.8380
1502.505199 0.8540 0.8580 0.8580 0.6257 0.6250
1507.198576 0.8090 0.8150 0.8360 0.8520 0.8640
1511.891954 0.8770 0.8770 0.8910 0.8910 0.8870
1516.585332 0.8354 0.5990 0.5994 0.8780 0.8620
1521.278709 0.8200 0.8150 0.8150 0.8589 0.8610
1525.972087 0.8610 0.8608 0.7160 0.7161 0.8930
1530.665464 0.8940 0.8930 0.8720 0.8710 0.8710
1535.358842 0.8800 0.8950 0.9040 0.9040 0.8710
1540.052219 0.7601 0.7600 0.8947 0.9000 0.9000
1544.745597 0.9010 0.9040 0.9070 0.9100 0.9130
1549.438975 0.9230 0.9260 0.9390 0.9460 0.9430
1554.132352 0.9340 0.9240 0.9230 0.9100 0.8780
1558.825730 0.8710 0.8710 0.8870 0.9030 0.9190
1563.519107 0.9400 0.9460 0.9460 0.9460 0.9420
1568.212485 0.9340 0.9340 0.9330 0.9260 0.9260
1572.905862 0.9320 0.9491 0.9890 0.9680 0.9560
1577.599240 0.9550 0.9550 0.9530 0.9520 0.9530
1582.292618 0.9550 0.9580 0.9630 0.9650 0.9650
1586.985995 0.9630 0.9630 0.9630 0.9620 0.9620
1591.679373 0.9630 0.9630 0.9650 0.9660 0.9680
1596.372750 0.9690 0.9690 0.9710 0.9690 0.9710
1601.066128 0.9710 0.9710 0.9710 0.9710 0.9710
1605.759505 0.9710 0.9720 0.9720 0.9720 0.9720
1610.452883 0.9720 0.9710 0.9680 0.9660 0.9560
1615.146261 0.9500 0.9500 0.9550 0.9620 0.9620
1619.839638 0.9650 0.9650 0.9660 0.9680 0.9680
1624.533016 0.9690 0.9710 0.9720 0.9760 0.9760
1629.226393 0.9760 0.9780 0.9760 0.9660 0.9560
1633.919771 0.9420 0.9420 0.9520 0.9720 0.9750
1638.613148 0.9760 0.9780 0.9780 0.9780 0.9730
1643.306526 0.9690 0.9630 0.9560 0.9520 0.9520
1647.999904 0.9710 0.9720 0.9620 0.9429 0.9000
1652.693281 0.9000 0.9300 0.9560 0.9690 0.9760
1657.386659 0.9760 0.9760 0.9780 0.9760 0.9760
1662.080036 0.9730 0.9730 0.9720 0.9710 0.9710
1666.773414 0.9680 0.9630 0.9620 0.9620 0.9690
1671.466791 0.9690 0.9560 0.9560 0.9690 0.9710
1676.160169 0.9720 0.9730 0.9760 0.9760 0.9710
1680.853547 0.9550 0.9330 0.9140 0.9140 0.9329
1685.546924 0.9680 0.9760 0.9780 0.9780 0.9760
1690.240302 0.9760 0.9720 0.9690 0.9650 0.9600
1694.933679 0.9210 0.9200 0.9240 0.9330 0.9460
1699.627057 0.9500 0.9550 0.9590 0.9630 0.9630
1704.320434 0.9630 0.9630 0.9650 0.9660 0.9680
1709.013812 0.9680 0.9710 0.9710 0.9660 0.9550
1713.707190 0.9470 0.9420 0.9330 0.9320 0.9330
1718.400567 0.9460 0.9620 0.9650 0.9650 0.9630
1723.093945 0.9630 0.9630 0.9630 0.9630 0.9620
1727.787322 0.9600 0.9590 0.9580 0.9400 0.9190
1732.480700 0.9190 0.9290 0.9400 0.9470 0.9470
1737.174077 0.9470 0.9490 0.9490 0.9490 0.9490
1741.867455 0.9470 0.9450 0.9430 0.9390 0.9340
1746.560833 0.9330 0.9320 0.9300 0.9300 0.9320
1751.254210 0.9360 0.9420 0.9450 0.9450 0.9450
1755.947588 0.9450 0.9460 0.9460 0.9430 0.9390
1760.640965 0.9370 0.9360 0.9360 0.9340 0.9320
1765.334343 0.9300 0.9260 0.9210 0.9190 0.9140
1770.027720 0.9110 0.9130 0.9290 0.9330 0.9330
1774.721098 0.9330 0.9340 0.9330 0.9360 0.9400
1779.414476 0.9420 0.9420 0.9420 0.9420 0.9420
1784.107853 0.9420 0.9400 0.9390 0.9330 0.9330
1788.801231 0.9320 0.9320 0.9330 0.9490 0.9590
1793.494608 0.9620 0.9660 0.9680 0.9690 0.9690
1798.187986 0.9710 0.9720 0.9730 0.9730 0.9750
1802.881363 0.9750 0.9750 0.9750 0.9750 0.9760
1807.574741 0.9760 0.9780 0.9780 0.9780 0.9760
1812.268119 0.9760 0.9750 0.9750 0.9750 0.9750
1816.961496 0.9730 0.9730 0.9720 0.9710 0.9710
1821.654874 0.9750 0.9750 0.9750 0.9750 0.9750
1826.348251 0.9750 0.9750 0.9760 0.9760 0.9760
1831.041629 0.9760 0.9760 0.9760 0.9760 0.9760
1835.735006 0.9760 0.9760 0.9760 0.9750 0.9720
1840.428384 0.9710 0.9690 0.9710 0.9730 0.9750
1845.121762 0.9780 0.9780 0.9780 0.9780 0.9760
1849.815139 0.9760 0.9760 0.9760 0.9780 0.9780
1854.508517 0.9780 0.9780 0.9780 0.9760 0.9760
1859.201894 0.9760 0.9750 0.9750 0.9750 0.9750
1863.895272 0.9730 0.9730 0.9730 0.9730 0.9750
1868.588650 0.9760 0.9780 0.9780 0.9780 0.9780
1873.282027 0.9780 0.9780 0.9780 0.9780 0.9780
1877.975405 0.9780 0.9780 0.9780 0.9780 0.9780
1882.668782 0.9780 0.9780 0.9780 0.9780 0.9780
1887.362160 0.9780 0.9790 0.9790 0.9790 0.9790
1892.055537 0.9780 0.9780 0.9780 0.9760 0.9760
1896.748915 0.9760 0.9760 0.9760 0.9760 0.9760
1901.442293 0.9760 0.9750 0.9750 0.9750 0.9750
1906.135670 0.9750 0.9750 0.9750 0.9750 0.9750
1910.829048 0.9750 0.9750 0.9750 0.9750 0.9750
1915.522425 0.9750 0.9750 0.9760 0.9760 0.9760
1920.215803 0.9750 0.9760 0.9760 0.9760 0.9760
1924.909180 0.9760 0.9760 0.9760 0.9760 0.9760
1929.602558 0.9760 0.9760 0.9760 0.9760 0.9760
1934.295936 0.9760 0.9760 0.9760 0.9760 0.9760
1938.989313 0.9760 0.9760 0.9760 0.9760 0.9760
1943.682691 0.9760 0.9760 0.9760 0.9760 0.9750
1948.376068 0.9750 0.9750 0.9750 0.9730 0.9720
1953.069446 0.9710 0.9690 0.9690 0.9690 0.9690
1957.762823 0.9720 0.9750 0.9760 0.9760 0.9780
1962.456201 0.9790 0.9790 0.9790 0.9790 0.9790
1967.149579 0.9790 0.9790 0.9790 0.9790 0.9810
1971.842956 0.9810 0.9810 0.9810 0.9810 0.9810
1976.536334 0.9810 0.9810 0.9810 0.9810 0.9820
1981.229711 0.9820 0.9820 0.9820 0.9820 0.9820
1985.923089 0.9820 0.9820 0.9820 0.9820 0.9820
1990.616466 0.9820 0.9840 0.9840 0.9840 0.9840
1995.309844 0.9840 0.9850 0.9850 0.9850 0.9850
2000.003222 0.9850 0.9850 0.9850 0.9850 0.9850
2004.696599 0.9850 0.9850 0.9850 0.9850 0.9850
2009.389977 0.9850 0.9845 0.9840 0.9840 0.9840
2014.083354 0.9840 0.9840 0.9840 0.9840 0.9830
2018.776732 0.9820 0.9820 0.9820 0.9820 0.9820
2023.470109 0.9820 0.9820 0.9820 0.9820 0.9820
2028.163487 0.9820 0.9815 0.9810 0.9810 0.9810
2032.856865 0.9810 0.9810 0.9810 0.9810 0.9810
2037.550242 0.9810 0.9801 0.9791 0.9790 0.9790
2042.243620 0.9790 0.9790 0.9790 0.9790 0.9785
2046.936997 0.9781 0.9780 0.9780 0.9780 0.9780
2051.630375 0.9780 0.9780 0.9780 0.9780 0.9767
2056.323752 0.9752 0.9750 0.9750 0.9750 0.9750
2061.017130 0.9750 0.9750 0.9741 0.9731 0.9730
2065.710508 0.9730 0.9730 0.9730 0.9730 0.9730
2070.403885 0.9722 0.9712 0.9702 0.9692 0.9686
2075.097263 0.9681 0.9680 0.9680 0.9672 0.9662
2079.790640 0.9647 0.9632 0.9613 0.9593 0.9590
2084.484018 0.9590 0.9578 0.9563 0.9560 0.9560
2089.177395 0.9556 0.9551 0.9550 0.9550 0.9542
2093.870773 0.9532 0.9530 0.9530 0.9526 0.9521
2098.564151 0.9520 0.9520 0.9520 0.9520 0.9520
2103.257528 0.9520 0.9520 0.9520 0.9512 0.9502
2107.950906 0.9500 0.9500 0.9481 0.9456 0.9415
2112.644283 0.9370 0.9337 0.9307 0.9300 0.9300
2117.337661 0.9384 0.9494 0.9520 0.9520 0.9512
2122.031038 0.9503 0.9496 0.9491 0.9483 0.9473
2126.724416 0.9466 0.9461 0.9456 0.9451 0.9428
2131.417794 0.9398 0.9379 0.9364 0.9349 0.9334
2136.111171 0.9330 0.9330 0.9334 0.9339 0.9372
2140.804549 0.9417 0.9444 0.9464 0.9470 0.9470
2145.497926 0.9477 0.9487 0.9490 0.9490 0.9490
2150.191304 0.9490 0.9490 0.9490 0.9490 0.9490
2154.884681 0.9490 0.9490 0.9490 0.9490 0.9493
2159.578059 0.9498 0.9500 0.9500 0.9510 0.9525
2164.271437 0.9537 0.9547 0.9553 0.9558 0.9567
2168.964814 0.9577 0.9580 0.9580 0.9583 0.9588
2173.658192 0.9590 0.9590 0.9593 0.9598 0.9606
2178.351569 0.9616 0.9623 0.9628 0.9636 0.9646
2183.044947 0.9644 0.9634 0.9630 0.9630 0.9636
2187.738324 0.9646 0.9659 0.9674 0.9689 0.9704
2192.431702 0.9716 0.9726 0.9730 0.9730 0.9730
2197.125080 0.9730 0.9736 0.9746 0.9750 0.9750
2201.818457 0.9750 0.9750 0.9753 0.9758 0.9760
2206.511835 0.9760 0.9760 0.9760 0.9760 0.9760
2211.205212 0.9760 0.9760 0.9760 0.9760 0.9760
2215.898590 0.9760 0.9760 0.9760 0.9766 0.9776
2220.591967 0.9783 0.9788 0.9790 0.9790 0.9790
2225.285345 0.9790 0.9790 0.9790 0.9787 0.9782
2229.978723 0.9775 0.9765 0.9760 0.9760 0.9760
2234.672100 0.9760 0.9760 0.9760 0.9757 0.9752
2239.365478 0.9750 0.9750 0.9750 0.9750 0.9750
2244.058855 0.9750 0.9745 0.9735 0.9730 0.9730
2248.752233 0.9730 0.9730 0.9728 0.9723 0.9718
2253.445610 0.9713 0.9710 0.9710 0.9705 0.9695
2258.138988 0.9690 0.9690 0.9688 0.9683 0.9680
2262.832366 0.9680 0.9680 0.9680 0.9680 0.9680
2267.525743 0.9680 0.9680 0.9680 0.9680 0.9675
2272.219121 0.9666 0.9660 0.9660 0.9660 0.9660
2276.912498 0.9658 0.9653 0.9650 0.9650 0.9644
2281.605876 0.9628 0.9616 0.9606 0.9598 0.9593
2286.299254 0.9588 0.9583 0.9576 0.9566 0.9560
2290.992631 0.9560 0.9564 0.9574 0.9582 0.9587
2295.686009 0.9592 0.9597 0.9600 0.9600 0.9600
2300.379386 0.9600 0.9600 0.9600 0.9604 0.9614
2305.072764 0.9620 0.9620 0.9622 0.9627 0.9630
2309.766141 0.9630 0.9630 0.9630 0.9628 0.9623
2314.459519 0.9616 0.9606 0.9600 0.9600 0.9598
2319.152897 0.9593 0.9588 0.9583 0.9580 0.9580
2323.846274 0.9576 0.9567 0.9560 0.9560 0.9563
2328.539652 0.9573 0.9582 0.9587 0.9592 0.9597
2333.233029 0.9605 0.9620 0.9633 0.9643 0.9652
2337.926407 0.9657 0.9660 0.9660 0.9663 0.9673
2342.619784 0.9680 0.9680 0.9682 0.9687 0.9690
2347.313162 0.9690 0.9693 0.9703 0.9710 0.9710
2352.006540 0.9711 0.9716 0.9721 0.9726 0.9730
2356.699917 0.9730 0.9730 0.9730 0.9730 0.9730
2361.393295 0.9730 0.9730 0.9733 0.9743 0.9750
2366.086672 0.9750 0.9750 0.9750 0.9750 0.9750
2370.780050 0.9751 0.9756 0.9760 0.9760 0.9760
2375.473427 0.9760 0.9763 0.9772 0.9780 0.9780
2380.166805 0.9780 0.9780 0.9781 0.9786 0.9790
2384.860183 0.9790 0.9790 0.9790 0.9792 0.9802
2389.553560 0.9810 0.9810 0.9810 0.9810 0.9810
2394.246938 0.9810 0.9811 0.9816 0.9820 0.9820
2398.940315 0.9820 0.9820 0.9820 0.9820 0.9822
2403.633693 0.9832 0.9840 0.9840 0.9840 0.9840
2408.327070 0.9840 0.9840 0.9840 0.9840 0.9840
2413.020448 0.9840 0.9840 0.9840 0.9840 0.9840
2417.713826 0.9840 0.9840 0.9838 0.9828 0.9820
2422.407203 0.9820 0.9820 0.9820 0.9819 0.9814
2427.100581 0.9810 0.9810 0.9810 0.9810 0.9810
2431.793958 0.9810 0.9810 0.9810 0.9809 0.9799
2436.487336 0.9790 0.9790 0.9789 0.9784 0.9780
2441.180713 0.9780 0.9779 0.9769 0.9760 0.9760
2445.874091 0.9760 0.9755 0.9749 0.9734 0.9719
2450.567469 0.9704 0.9688 0.9674 0.9658 0.9638
2455.260846 0.9617 0.9587 0.9557 0.9522 0.9484
2459.954224 0.9404 0.9325 0.9261 0.9197 0.9152
2464.647601 0.9108 0.9073 0.9039 0.9019 0.8999
2469.340979 0.8968 0.8939 0.8919 0.8898 0.8858
2474.034356 0.8819 0.8799 0.8780 0.8780 0.8781
2478.727734 0.8801 0.8822 0.8866 0.8912 0.8977
2483.421112 0.9041 0.9101 0.9160 0.9160 0.9159
2488.114489 0.9109 0.9059 0.9004 0.8948 0.8858
2492.807867 0.8769 0.8689 0.8609 0.8514 0.8420
2497.501244 0.8325 0.8230 0.8225 0.8220 0.8225
2502.194622 0.8230 0.8436 0.8646 0.8748 0.8847
2506.887999 0.9027 0.9208 0.9383 0.9557 0.9697
2511.581377 0.9837 0.9850 0.9860 0.9860 0.9860
2516.274755 0.9870 0.9880 0.9880 0.9880 0.9880
2520.968132 0.9880 0.9880 0.9880 0.9880 0.9880
2525.661510 0.9880 0.9880 0.9880 0.9880 0.9880
2530.354887 0.9880 0.9880 0.9880 0.9880 0.9880
2535.048265 0.9880 0.9880 0.9880 0.9880 0.9880
2539.741642 0.9880 0.9880 0.9880 0.9880 0.9880
2544.435020 0.9880 0.9880 0.9880 0.9880 0.9880
2549.128398 0.9880 0.9880 0.9880 0.9880 0.9880
2553.821775 0.9880 0.9880 0.9880 0.9880 0.9880
2558.515153 0.9880 0.9880 0.9880 0.9880 0.9880
2563.208530 0.9880 0.9880 0.9880 0.9880 0.9880
2567.901908 0.9880 0.9880 0.9880 0.9880 0.9880
2572.595285 0.9880 0.9880 0.9880 0.9880 0.9880
2577.288663 0.9880 0.9880 0.9880 0.9880 0.9880
2581.982041 0.9880 0.9880 0.9880 0.9880 0.9880
2586.675418 0.9880 0.9880 0.9880 0.9872 0.9862
2591.368796 0.9860 0.9860 0.9860 0.9860 0.9860
2596.062173 0.9860 0.9860 0.9860 0.9860 0.9860
2600.755551 0.9860 0.9860 0.9856 0.9851 0.9850
2605.448928 0.9850 0.9850 0.9850 0.9850 0.9850
2610.142306 0.9850 0.9850 0.9850 0.9850 0.9850
2614.835684 0.9850 0.9850 0.9850 0.9846 0.9841
2619.529061 0.9840 0.9840 0.9840 0.9840 0.9840
2624.222439 0.9840 0.9840 0.9840 0.9840 0.9840
2628.915816 0.9840 0.9840 0.9840 0.9840 0.9840
2633.609194 0.9840 0.9840 0.9840 0.9840 0.9840
2638.302571 0.9840 0.9840 0.9840 0.9840 0.9840
2642.995949 0.9840 0.9840 0.9840 0.9840 0.9840
2647.689327 0.9840 0.9840 0.9840 0.9840 0.9840
2652.382704 0.9840 0.9840 0.9840 0.9840 0.9840
2657.076082 0.9840 0.9840 0.9840 0.9840 0.9840
2661.769459 0.9840 0.9840 0.9840 0.9840 0.9840
2666.462837 0.9840 0.9840 0.9840 0.9840 0.9840
2671.156215 0.9840 0.9840 0.9840 0.9840 0.9840
2675.849592 0.9840 0.9840 0.9840 0.9840 0.9843
2680.542970 0.9848 0.9850 0.9850 0.9850 0.9850
2685.236347 0.9847 0.9842 0.9840 0.9840 0.9840
2689.929725 0.9840 0.9846 0.9856 0.9860 0.9860
2694.623102 0.9860 0.9860 0.9860 0.9860 0.9860
2699.316480 0.9860 0.9860 0.9860 0.9860 0.9860
2704.009858 0.9860 0.9860 0.9860 0.9860 0.9860
2708.703235 0.9860 0.9860 0.9860 0.9857 0.9852
2713.396613 0.9850 0.9850 0.9850 0.9850 0.9850
2718.089990 0.9850 0.9853 0.9858 0.9860 0.9860
2722.783368 0.9860 0.9860 0.9860 0.9860 0.9860
2727.476745 0.9860 0.9860 0.9860 0.9860 0.9860
2732.170123 0.9860 0.9860 0.9860 0.9860 0.9860
2736.863501 0.9860 0.9860 0.9860 0.9860 0.9860
2741.556878 0.9860 0.9860 0.9860 0.9860 0.9860
2746.250256 0.9860 0.9860 0.9860 0.9860 0.9860
2750.943633 0.9858 0.9853 0.9850 0.9850 0.9850
2755.637011 0.9850 0.9850 0.9850 0.9848 0.9843
2760.330388 0.9840 0.9840 0.9840 0.9840 0.9835
2765.023766 0.9825 0.9820 0.9820 0.9818 0.9813
2769.717144 0.9810 0.9810 0.9810 0.9810 0.9805
2774.410521 0.9795 0.9790 0.9790 0.9790 0.9790
2779.103899 0.9790 0.9790 0.9790 0.9790 0.9790
2783.797276 0.9790 0.9790 0.9790 0.9788 0.9783
2788.490654 0.9780 0.9780 0.9769 0.9744 0.9726
2793.184031 0.9716 0.9706 0.9696 0.9688 0.9683
2797.877409 0.9680 0.9680 0.9676 0.9666 0.9658
2802.570787 0.9653 0.9644 0.9629 0.9614 0.9599
2807.264164 0.9579 0.9549 0.9516 0.9482 0.9437
2811.957542 0.9377 0.9336 0.9326 0.9314 0.9300
2816.650919 0.9279 0.9249 0.9203 0.9128 0.9061
2821.344297 0.9006 0.8953 0.8903 0.8855 0.8810
2826.037674 0.8768 0.8733 0.8703 0.8683 0.8661
2830.731052 0.8636 0.8615 0.8600 0.8585 0.8570
2835.424430 0.8557 0.8547 0.8537 0.8527 0.8515
2840.117807 0.8500 0.8484 0.8464 0.8444 0.8424
2844.811185 0.8401 0.8371 0.8341 0.8311 0.8284
2849.504562 0.8264 0.8232 0.8172 0.8126 0.8111
2854.197940 0.8100 0.8100 0.8103 0.8113 0.8142
2858.891317 0.8222 0.8364 0.8673 0.8900 0.8900
2863.584695 0.8897 0.8887 0.8879 0.8874 0.8867
2868.278073 0.8857 0.8853 0.8863 0.8871 0.8876
2872.971450 0.8889 0.8924 0.8960 0.9000 0.9031
2877.664828 0.9036 0.9062 0.9157 0.9243 0.9297
2882.358205 0.9358 0.9439 0.9512 0.9562 0.9607
2887.051583 0.9637 0.9666 0.9691 0.9711 0.9716
2891.744960 0.9721 0.9726 0.9732 0.9742 0.9751
2896.438338 0.9756 0.9760 0.9760 0.9760 0.9760
2901.131716 0.9760 0.9760 0.9762 0.9772 0.9780
2905.825093 0.9780 0.9780 0.9780 0.9780 0.9780
2910.518471 0.9780 0.9780 0.9780 0.9780 0.9780
2915.211848 0.9780 0.9778 0.9768 0.9759 0.9754
2919.905226 0.9747 0.9727 0.9705 0.9675 0.9648
2924.598603 0.9633 0.9615 0.9586 0.9557 0.9537
2929.291981 0.9514 0.9469 0.9421 0.9357 0.9291
2933.985359 0.9221 0.9151 0.9076 0.9001 0.8921
2938.678736 0.8838 0.8733 0.8608 0.8354 0.8097
2943.372114 0.7818 0.7541 0.7281 0.7029 0.6835
2948.065491 0.6523 0.5172 0.3928 0.3693 0.3459
2952.758869 0.3230 0.2984 0.2555 0.2160 0.2155
2957.452246 0.2150 0.2155 0.2168 0.2258 0.2344
2962.145624 0.2399 0.2461 0.2605 0.2751 0.2911
2966.839002 0.3074 0.3299 0.3524 0.3774 0.4062
2971.532379 0.5074 0.6040 0.6040 0.5981 0.4510
2976.225757 0.3087 0.2996 0.2883 0.2350 0.1840
2980.919134 0.1835 0.1830 0.1835 0.1843 0.1933
2985.612512 0.2022 0.2107 0.2193 0.2317 0.2451
2990.305889 0.3154 0.3854 0.4237 0.4621 0.4915
2994.999267 0.5209 0.5587 0.5964 0.6303 0.6642
2999.692645 0.6966 0.7290 0.7729 0.8168 0.8259
3004.386022 0.8349 0.8429 0.8509 0.8588 0.8668
3009.079400 0.8767 0.8867 0.8952 0.9037 0.9151
3013.772777 0.9265 0.9299 0.9329 0.9330 0.9330
3018.466155 0.9262 0.9193 0.9118 0.9043 0.8992
3023.159532 0.8942 0.8921 0.8901 0.8843 0.8784
3027.852910 0.8738 0.8693 0.8681 0.8671 0.8975
3032.546288 0.9304 0.9330 0.9330 0.9129 0.8915
3037.239665 0.8793 0.8679 0.8573 0.8468 0.8460
3041.933043 0.8460 0.8692 0.8946 0.9133 0.9312
3046.626420 0.9348 0.9368 0.9366 0.9361 0.9054
3051.319798 0.8710 0.8657 0.8642 0.8644 0.8649
3056.013175 0.8726 0.8810 0.9032 0.9272 0.9300
3060.706553 0.9300 0.9003 0.8664 0.8403 0.8154
3065.399931 0.8120 0.8120 0.8248 0.8398 0.8747
3070.093308 0.9131 0.9211 0.9237 0.9240 0.9240
3074.786686 0.9069 0.8870 0.8768 0.8683 0.8657
3079.480063 0.8642 0.8644 0.8649 0.8712 0.8787
3084.173441 0.8874 0.8964 0.9099 0.9243 0.9290
3088.866819 0.9315 0.9308 0.9293 0.9253 0.9208
3093.560196 0.9016 0.8792 0.8620 0.8461 0.8430
3098.253574 0.8430 0.8749 0.9148 0.9234 0.9239
3102.946951 0.9240 0.9240 0.9240 0.9240 0.9240
3107.640329 0.9240 0.9236 0.9231 0.9230 0.9230
3112.333706 0.9207 0.9177 0.9166 0.9161 0.9172
3117.027084 0.9186 0.9217 0.9252 0.9286 0.9321
3121.720462 0.9345 0.9365 0.9377 0.9387 0.9401
3126.413839 0.9416 0.9435 0.9455 0.9471 0.9486
3131.107217 0.9501 0.9516 0.9531 0.9546 0.9561
3135.800594 0.9576 0.9580 0.9580 0.9580 0.9580
3140.493972 0.9584 0.9589 0.9604 0.9624 0.9640
3145.187349 0.9655 0.9660 0.9660 0.9667 0.9677
3149.880727 0.9691 0.9706 0.9713 0.9718 0.9720
3154.574105 0.9720 0.9734 0.9754 0.9760 0.9760
3159.267482 0.9760 0.9760 0.9767 0.9777 0.9780
3163.960860 0.9780 0.9780 0.9780 0.9783 0.9788
3168.654237 0.9790 0.9790 0.9790 0.9790 0.9790
3173.347615 0.9790 0.9796 0.9806 0.9810 0.9810
3178.040992 0.9813 0.9818 0.9820 0.9820 0.9820
3182.734370 0.9820 0.9826 0.9836 0.9840 0.9840
3187.427748 0.9840 0.9840 0.9843 0.9848 0.9850
3192.121125 0.9850 0.9850 0.9850 0.9850 0.9850
3196.814503 0.9850 0.9850 0.9853 0.9858 0.9860
3201.507880 0.9860 0.9860 0.9860 0.9860 0.9860
3206.201258 0.9866 0.9876 0.9880 0.9880 0.9880
3210.894635 0.9880 0.9880 0.9880 0.9883 0.9888
3215.588013 0.9890 0.9890 0.9890 0.9890 0.9890
3220.281391 0.9890 0.9890 0.9890 0.9890 0.9890
3224.974768 0.9890 0.9890 0.9890 0.9890 0.9890
3229.668146 0.9890 0.9890 0.9890 0.9895 0.9905
3234.361523 0.9910 0.9910 0.9910 0.9910 0.9910
3239.054901 0.9910 0.9910 0.9910 0.9910 0.9910
3243.748278 0.9910 0.9910 0.9910 0.9910 0.9910
3248.441656 0.9910 0.9913 0.9917 0.9920 0.9920
3253.135034 0.9920 0.9920 0.9920 0.9920 0.9920
3257.828411 0.9920 0.9920 0.9920 0.9920 0.9920
3262.521789 0.9920 0.9920 0.9920 0.9920 0.9920
3267.215166 0.9920 0.9920 0.9920 0.9920 0.9920
3271.908544 0.9920 0.9920 0.9920 0.9920 0.9920
3276.601921 0.9920 0.9920 0.9920 0.9920 0.9920
3281.295299 0.9920 0.9920 0.9920 0.9920 0.9920
3285.988677 0.9920 0.9920 0.9920 0.9920 0.9920
3290.682054 0.9920 0.9920 0.9920 0.9920 0.9920
3295.375432 0.9920 0.9918 0.9913 0.9910 0.9910
3300.068809 0.9910 0.9910 0.9910 0.9910 0.9910
3304.762187 0.9910 0.9910 0.9910 0.9910 0.9910
3309.455564 0.9910 0.9910 0.9910 0.9910 0.9906
3314.148942 0.9896 0.9890 0.9890 0.9890 0.9890
3318.842320 0.9890 0.9890 0.9890 0.9890 0.9890
3323.535697 0.9890 0.9890 0.9890 0.9890 0.9890
3328.229075 0.9893 0.9903 0.9910 0.9910 0.9910
3332.922452 0.9910 0.9910 0.9910 0.9910 0.9910
3337.615830 0.9910 0.9910 0.9910 0.9910 0.9910
3342.309207 0.9910 0.9910 0.9910 0.9910 0.9910
3347.002585 0.9910 0.9910 0.9910 0.9910 0.9910
3351.695963 0.9910 0.9910 0.9910 0.9910 0.9910
3356.389340 0.9910 0.9910 0.9910 0.9910 0.9910
3361.082718 0.9910 0.9910 0.9910 0.9910 0.9910
3365.776095 0.9910 0.9910 0.9910 0.9910 0.9910
3370.469473 0.9910 0.9910 0.9910 0.9910 0.9910
3375.162850 0.9910 0.9910 0.9910 0.9910 0.9910
3379.856228 0.9910 0.9910 0.9910 0.9910 0.9910
3384.549606 0.9911 0.9916 0.9920 0.9920 0.9920
3389.242983 0.9920 0.9920 0.9920 0.9920 0.9920
3393.936361 0.9920 0.9920 0.9922 0.9932 0.9940
3398.629738 0.9940 0.9940 0.9940 0.9940 0.9940
3403.323116 0.9940 0.9940 0.9940 0.9940 0.9941
3408.016493 0.9946 0.9950 0.9950 0.9950 0.9950
3412.709871 0.9950 0.9950 0.9950 0.9950 0.9950
3417.403249 0.9950 0.9950 0.9950 0.9950 0.9950
3422.096626 0.9950 0.9950 0.9950 0.9950 0.9950
3426.790004 0.9950 0.9950 0.9950 0.9949 0.9944
3431.483381 0.9940 0.9940 0.9940 0.9940 0.9939
3436.176759 0.9929 0.9920 0.9920 0.9919 0.9914
3440.870136 0.9910 0.9910 0.9910 0.9910 0.9910
3445.563514 0.9910 0.9910 0.9910 0.9910 0.9910
3450.256892 0.9910 0.9910 0.9910 0.9910 0.9910
3454.950269 0.9910 0.9910 0.9910 0.9910 0.9910
3459.643647 0.9909 0.9899 0.9890 0.9890 0.9890
3464.337024 0.9885 0.9880 0.9880 0.9879 0.9869
3469.030402 0.9860 0.9860 0.9860 0.9860 0.9860
3473.723779 0.9855 0.9850 0.9850 0.9850 0.9850
3478.417157 0.9850 0.9845 0.9840 0.9840 0.9840
3483.110535 0.9840 0.9840 0.9830 0.9820 0.9820
3487.803912 0.9820 0.9820 0.9820 0.9820 0.9820
3492.497290 0.9820 0.9820 0.9815 0.9810 0.9810
3497.190667 0.9810 0.9810 0.9810 0.9810 0.9810
3501.884045 0.9810 0.9810 0.9810 0.9810 0.9815
3506.577423 0.9820 0.9830 0.9840 0.9840 0.9840
3511.270800 0.9850 0.9860 0.9870 0.9880 0.9880
3515.964178 0.9880 0.9880 0.9880 0.9894 0.9909
3520.657555 0.9910 0.9910 0.9910 0.9910 0.9910
3525.350933 0.9910 0.9910 0.9910 0.9910 0.9910
3530.044310 0.9901 0.9891 0.9890 0.9890 0.9885
3534.737688 0.9880 0.9880 0.9880 0.9871 0.9861
3539.431066 0.9860 0.9860 0.9860 0.9860 0.9860
3544.124443 0.9860 0.9860 0.9860 0.9860 0.9860
3548.817821 0.9860 0.9860 0.9860 0.9860 0.9860
3553.511198 0.9860 0.9860 0.9860 0.9860 0.9860
3558.204576 0.9860 0.9860 0.9860 0.9860 0.9860
3562.897953 0.9860 0.9860 0.9860 0.9869 0.9879
3567.591331 0.9880 0.9880 0.9880 0.9880 0.9871
3572.284709 0.9861 0.9860 0.9860 0.9860 0.9860
3576.978086 0.9860 0.9860 0.9860 0.9860 0.9868
3581.671464 0.9878 0.9880 0.9880 0.9880 0.9880
3586.364841 0.9880 0.9880 0.9880 0.9880 0.9880
3591.058219 0.9880 0.9872 0.9862 0.9856 0.9851
3595.751596 0.9850 0.9850 0.9846 0.9841 0.9840
3600.444974 0.9840 0.9832 0.9822 0.9820 0.9820
3605.138352 0.9816 0.9811 0.9810 0.9810 0.9802
3609.831729 0.9792 0.9790 0.9790 0.9790 0.9790
3614.525107 0.9790 0.9790 0.9786 0.9781 0.9780
3619.218484 0.9780 0.9780 0.9780 0.9803 0.9833
3623.911862 0.9855 0.9875 0.9880 0.9880 0.9880
3628.605239 0.9880 0.9873 0.9863 0.9853 0.9843
3633.298617 0.9822 0.9797 0.9779 0.9764 0.9756
3637.991995 0.9751 0.9743 0.9733 0.9737 0.9747
3642.685372 0.9782 0.9827 0.9844 0.9849 0.9850
3647.378750 0.9850 0.9847 0.9842 0.9840 0.9840
3652.072127 0.9833 0.9823 0.9810 0.9795 0.9780
3656.765505 0.9765 0.9750 0.9735 0.9723 0.9713
3661.458882 0.9703 0.9693 0.9697 0.9707 0.9727
3666.152260 0.9752 0.9760 0.9760 0.9770 0.9785
3670.845638 0.9787 0.9782 0.9764 0.9739 0.9714
3675.539015 0.9689 0.9673 0.9664 0.9670 0.9685
3680.232393 0.9700 0.9715 0.9739 0.9769 0.9783
3684.925770 0.9788 0.9790 0.9790 0.9787 0.9782
3689.619148 0.9780 0.9780 0.9771 0.9756 0.9744
3694.312525 0.9734 0.9727 0.9722 0.9711 0.9696
3699.005903 0.9687 0.9682 0.9683 0.9688 0.9696
3703.699281 0.9706 0.9713 0.9718 0.9723 0.9728
3708.392658 0.9739 0.9754 0.9766 0.9776 0.9780
3713.086036 0.9780 0.9783 0.9788 0.9790 0.9790
3717.779413 0.9790 0.9790 0.9790 0.9790 0.9790
3722.472791 0.9790 0.9787 0.9782 0.9775 0.9765
3727.166168 0.9752 0.9737 0.9717 0.9691 0.9664
3731.859546 0.9634 0.9615 0.9605 0.9597 0.9592
3736.552924 0.9598 0.9613 0.9628 0.9643 0.9671
3741.246301 0.9711 0.9753 0.9798 0.9828 0.9843
3745.939679 0.9853 0.9857 0.9860 0.9860 0.9860
3750.633056 0.9860 0.9865 0.9875 0.9880 0.9880
3755.326434 0.9880 0.9880 0.9880 0.9880 0.9880
3760.019811 0.9880 0.9882 0.9887 0.9890 0.9890
3764.713189 0.9895 0.9905 0.9910 0.9910 0.9912
3769.406567 0.9917 0.9920 0.9920 0.9920 0.9920
3774.099944 0.9920 0.9920 0.9920 0.9920 0.9920
3778.793322 0.9920 0.9918 0.9913 0.9910 0.9910
3783.486699 0.9906 0.9896 0.9894 0.9904 0.9912
3788.180077 0.9917 0.9933 0.9963 0.9984 0.9994
3792.873454 1.0002 1.0007 1.0010 1.0010 1.0010
3797.566832 1.0010 1.0008 1.0003
##END=
